E(MeV)	"F-19(N,TOT)"
1.00000E-11	48.1851
1.10304E-11	45.891
1.21669E-11	43.7072
1.34206E-11	41.6286
1.48034E-11	39.65
1.63287E-11	37.7668
1.80111E-11	35.9744
1.98669E-11	34.2685
2.19139E-11	32.6451
2.41719E-11	31.1001
2.66625E-11	29.6299
2.94097E-11	28.2309
3.24400E-11	26.8999
3.57825E-11	25.6335
3.94694E-11	24.4287
4.35362E-11	23.2827
4.80221E-11	22.1926
5.29701E-11	21.1559
5.84280E-11	20.1701
6.44483E-11	19.2327
7.10888E-11	18.3416
7.84136E-11	17.4945
8.64931E-11	16.6895
9.54051E-11	15.9245
1.05235E-10	15.2017
1.05978E-10	15.1472
1.16078E-10	14.5144
1.17716E-10	14.412
1.28039E-10	13.8612
1.30762E-10	13.7161
1.41231E-10	13.2404
1.45245E-10	13.0583
1.55784E-10	12.6508
1.61341E-10	12.4362
1.71835E-10	12.0909
1.79211E-10	11.8485
1.89540E-10	11.5595
1.99071E-10	11.2932
2.09070E-10	11.0553
2.21120E-10	10.7691
2.30612E-10	10.5773
2.45625E-10	10.2743
2.54374E-10	10.1242
2.72831E-10	9.80792
2.80584E-10	9.695
3.03066E-10	9.3681
3.09494E-10	9.2887
3.36634E-10	8.95406
3.41383E-10	8.90435
3.73939E-10	8.56419
3.76558E-10	8.54099
4.15358E-10	8.19776
4.58155E-10	7.87751
4.61387E-10	7.85336
5.05362E-10	7.57528
5.12492E-10	7.53027
5.57433E-10	7.29172
5.73273E-10	7.20778
6.14869E-10	7.02371
6.41262E-10	6.90711
6.78223E-10	6.77095
7.17315E-10	6.62719
7.48105E-10	6.53291
8.02387E-10	6.367
8.25188E-10	6.30907
8.97550E-10	6.12556
9.10213E-10	6.09907
1.00400E-09	5.90324
1.01108E-09	5.88848
1.10745E-09	5.72412
1.13892E-09	5.67054
1.22155E-09	5.55566
1.28298E-09	5.47044
1.34742E-09	5.39806
1.45538E-09	5.27703
1.48625E-09	5.24926
1.63939E-09	5.11177
1.65096E-09	5.1014
1.80831E-09	4.98929
1.88593E-09	4.9341
1.99463E-09	4.87321
2.15446E-09	4.78389
2.20016E-09	4.76396
2.42685E-09	4.66534
2.47845E-09	4.64294
2.67691E-09	4.57683
2.87114E-09	4.51228
2.95273E-09	4.4918
3.25697E-09	4.41567
3.34952E-09	4.39256
3.59256E-09	4.34752
3.93516E-09	4.28421
3.96272E-09	4.28049
4.37103E-09	4.22554
4.65558E-09	4.18737
4.82141E-09	4.17148
5.31819E-09	4.12406
5.58560E-09	4.09861
5.86616E-09	4.0801
6.47059E-09	4.04036
6.79594E-09	4.01904
7.13730E-09	4.00406
7.87271E-09	3.97193
8.44395E-09	3.94707
8.68389E-09	3.94039
9.57865E-09	3.91563
1.05656E-08	3.88844
1.07902E-08	3.88228
1.16543E-08	3.86792
1.28551E-08	3.84808
1.41796E-08	3.8263
1.56406E-08	3.81274
1.72522E-08	3.79788
1.90298E-08	3.78157
1.94344E-08	3.77788
2.09906E-08	3.76971
2.31534E-08	3.75844
2.52419E-08	3.74762
2.53000E-08	3.74739
2.79068E-08	3.74049
3.07823E-08	3.73295
3.39540E-08	3.72469
3.74525E-08	3.71565
3.90601E-08	3.71152
4.13115E-08	3.70923
4.55681E-08	3.70496
5.02633E-08	3.70029
5.54423E-08	3.6952
6.11549E-08	3.68964
6.74561E-08	3.68354
6.79319E-08	3.68309
7.44066E-08	3.68123
8.20732E-08	3.67907
9.05297E-08	3.67673
9.98577E-08	3.67419
1.10147E-07	3.67142
1.21496E-07	3.6684
1.34014E-07	3.6651
1.45766E-07	3.66204
1.47823E-07	3.66194
1.63054E-07	3.66125
1.79855E-07	3.66052
1.98386E-07	3.65974
2.18827E-07	3.6589
2.41375E-07	3.65801
2.66245E-07	3.65704
2.93678E-07	3.656
3.23938E-07	3.65487
3.57316E-07	3.65365
3.94132E-07	3.65232
4.34743E-07	3.65087
4.79537E-07	3.64929
5.10755E-07	3.6482
5.28947E-07	3.64816
5.83448E-07	3.64805
6.43565E-07	3.64795
7.09876E-07	3.64785
7.83020E-07	3.64775
8.63700E-07	3.64765
9.52693E-07	3.64756
1.05086E-06	3.64747
1.15913E-06	3.64738
1.27857E-06	3.6473
1.41030E-06	3.64721
1.55562E-06	3.64713
1.72801E-06	3.64704
1.90606E-06	3.64695
2.10245E-06	3.64687
2.31908E-06	3.64679
2.55803E-06	3.6467
2.82161E-06	3.64661
3.11233E-06	3.64652
3.43302E-06	3.64643
3.76022E-06	3.64635
4.11881E-06	3.64625
4.51138E-06	3.64616
4.97622E-06	3.64605
5.45077E-06	3.64595
5.97029E-06	3.64584
6.58545E-06	3.64571
7.21347E-06	3.64559
7.90099E-06	3.64545
8.71508E-06	3.6453
9.47932E-06	3.64516
1.04560E-05	3.64498
1.15334E-05	3.64479
1.27218E-05	3.64458
1.38374E-05	3.64439
1.51569E-05	3.64417
1.64861E-05	3.64394
1.78062E-05	3.64372
1.95042E-05	3.64344
2.15139E-05	3.64311
2.37306E-05	3.64274
2.61757E-05	3.64235
2.90751E-05	3.64188
3.14047E-05	3.6415
3.20709E-05	3.64149
3.48832E-05	3.64147
3.79422E-05	3.64145
4.15605E-05	3.64142
4.61639E-05	3.64139
5.12797E-05	3.64136
5.57765E-05	3.64133
6.10925E-05	3.6413
6.73873E-05	3.64127
7.32966E-05	3.64123
8.08489E-05	3.64119
8.98084E-05	3.64115
9.83681E-05	3.6411
1.08504E-04	3.64106
1.18851E-04	3.64101
1.31097E-04	3.64095
1.43592E-04	3.64089
1.55097E-04	3.64084
1.72276E-04	3.64076
1.91368E-04	3.64068
2.11086E-04	3.64059
2.36120E-04	3.64048
2.60449E-04	3.64038
2.89298E-04	3.64025
3.16886E-04	3.64013
3.49537E-04	3.64
3.82852E-04	3.63985
4.19362E-04	3.6397
4.62572E-04	3.63952
5.13808E-04	3.6393
5.62807E-04	3.6391
6.16448E-04	3.63887
6.75236E-04	3.63863
7.49953E-04	3.63831
8.27226E-04	3.63799
9.06114E-04	3.63766
9.99477E-04	3.63727
1.13368E-03	3.63671
1.26574E-03	3.63617
1.45609E-03	3.63538
1.65176E-03	3.63456
1.84675E-03	3.63376
2.00869E-03	3.63308
2.32695E-03	3.63176
2.69625E-03	3.63023
3.02116E-03	3.62889
3.72768E-03	3.62596
4.02822E-03	3.62472
5.00000E-03	3.6207
6.04114E-03	3.61639
7.04768E-03	3.61222
8.05643E-03	3.60805
8.57043E-03	3.60592
9.06349E-03	3.60388
1.00000E-02	3.60001
1.10000E-02	3.59587
1.27435E-02	3.58867
1.60090E-02	3.58172
1.90000E-02	3.59171
1.92681E-02	3.59262
2.09947E-02	3.61708
2.10316E-02	3.61761
2.11055E-02	3.61866
2.18958E-02	3.64635
2.19344E-02	3.6477
2.20115E-02	3.65041
2.30000E-02	3.71366
2.33245E-02	3.74973
2.33553E-02	3.75737
2.33656E-02	3.75992
2.38204E-02	3.87287
2.45643E-02	4.06646
2.45720E-02	4.06847
2.45937E-02	4.08272
2.49593E-02	4.32317
2.50000E-02	4.34992
2.51369E-02	4.48762
2.51460E-02	4.49681
2.51903E-02	4.57048
2.55457E-02	5.16097
2.55570E-02	5.19151
2.55682E-02	5.22209
2.58714E-02	6.32697
2.58823E-02	6.36656
2.58850E-02	6.3827
2.58931E-02	6.43115
2.59040E-02	6.52584
2.59474E-02	6.9047
2.61971E-02	9.12804
2.62053E-02	9.228
2.62080E-02	9.26136
2.62140E-02	9.37026
2.62200E-02	9.47925
2.62320E-02	9.73516
2.63880E-02	13.0623
2.64000E-02	13.3565
2.64125E-02	13.7403
2.64375E-02	14.6012
2.64500E-02	15.0857
2.64813E-02	16.4608
2.64875E-02	16.7358
2.64938E-02	17.0344
2.65000E-02	17.3331
2.65063E-02	17.6787
2.65187E-02	18.3702
2.65375E-02	19.466
2.65437E-02	19.8313
2.65500E-02	20.2488
2.65562E-02	20.6665
2.65625E-02	21.1385
2.65875E-02	23.0266
2.65938E-02	23.5372
2.66000E-02	24.0479
2.66063E-02	24.6304
2.66125E-02	25.213
2.66312E-02	27.0954
2.66375E-02	27.723
2.66437E-02	28.4308
2.66469E-02	28.7848
2.66500E-02	29.1837
2.66562E-02	29.9817
2.66625E-02	30.8562
2.66906E-02	34.7925
2.67000E-02	36.2575
2.67094E-02	37.9287
2.67406E-02	44.0094
2.67500E-02	46.0062
2.67594E-02	48.2931
2.67812E-02	54.2419
2.67938E-02	57.7672
2.68000E-02	59.6572
2.68125E-02	63.8069
2.68250E-02	68.2425
2.68375E-02	73.0092
2.68500E-02	78.2087
2.68687E-02	86.748
2.69250E-02	113.027
2.69313E-02	115.947
2.69438E-02	121.603
2.69531E-02	125.404
2.69625E-02	128.401
2.69750E-02	131.391
2.69937E-02	135.148
2.70020E-02	136.034
2.70040E-02	136.107
2.70135E-02	135.779
2.70278E-02	134.227
2.70372E-02	132.561
2.70467E-02	130.08
2.70563E-02	126.879
2.70705E-02	121.375
2.70800E-02	117.439
2.70975E-02	109.525
2.71413E-02	89.1848
2.71500E-02	85.3168
2.71542E-02	83.624
2.71668E-02	78.5473
2.71751E-02	75.324
2.71961E-02	67.2667
2.72044E-02	64.3712
2.72086E-02	62.9239
2.72170E-02	60.3719
2.72222E-02	58.7917
2.72326E-02	55.9366
2.72429E-02	53.0819
2.72533E-02	50.5082
2.72689E-02	47.104
2.72948E-02	41.7079
2.73062E-02	39.5892
2.73187E-02	37.5483
2.73250E-02	36.5281
2.73312E-02	35.6003
2.73375E-02	34.6728
2.73438E-02	33.8388
2.73500E-02	33.0052
2.73563E-02	32.2745
2.73688E-02	30.8137
2.73875E-02	28.7284
2.73938E-02	28.0334
2.74000E-02	27.407
2.74062E-02	26.7809
2.74094E-02	26.5133
2.74250E-02	25.1757
2.74375E-02	24.1596
2.74437E-02	23.6516
2.74500E-02	23.1942
2.74563E-02	22.737
2.74625E-02	22.3335
2.74875E-02	20.72
2.74938E-02	20.3384
2.75000E-02	19.9569
2.75063E-02	19.6275
2.75187E-02	18.969
2.75312E-02	18.3571
2.75375E-02	18.0511
2.75500E-02	17.4694
2.75688E-02	16.7092
2.75750E-02	16.4559
2.75875E-02	15.9792
2.76000E-02	15.5026
2.76197E-02	14.8696
2.76395E-02	14.2368
2.76494E-02	13.9491
2.76593E-02	13.6615
2.76691E-02	13.4063
2.76879E-02	12.9218
2.77056E-02	12.5225
2.77145E-02	12.3228
2.77322E-02	11.9554
2.77500E-02	11.5879
2.77810E-02	11.0375
2.77891E-02	10.8944
2.77965E-02	10.7802
2.78047E-02	10.6545
2.78120E-02	10.5681
2.79902E-02	8.4643
2.79922E-02	8.44145
2.79980E-02	8.38439
2.80000E-02	8.36477
2.80079E-02	8.31013
2.80198E-02	8.22889
2.82765E-02	6.72583
2.83061E-02	6.56101
2.83160E-02	6.50563
2.83285E-02	6.47137
2.85157E-02	5.95798
2.87155E-02	5.42206
2.87281E-02	5.39876
2.87408E-02	5.37548
2.92907E-02	4.71439
2.93020E-02	4.70077
2.93278E-02	4.68572
2.98630E-02	4.37418
3.00000E-02	4.32025
3.08997E-02	4.09853
3.09470E-02	4.08688
3.13836E-02	4.03817
3.20000E-02	3.96939
3.27840E-02	3.92552
3.40000E-02	3.89635
3.52110E-02	3.90049
3.54594E-02	3.90135
3.60000E-02	3.9134
3.62539E-02	3.91907
3.75340E-02	3.96646
3.77670E-02	3.97509
3.80000E-02	3.99071
3.82681E-02	4.00869
4.00000E-02	4.14875
4.00300E-02	4.15118
4.05643E-02	4.23617
4.19020E-02	4.44896
4.33995E-02	4.91703
4.34098E-02	4.92023
4.34174E-02	4.92263
4.34200E-02	4.92344
4.34250E-02	4.92575
4.34300E-02	4.92807
4.34400E-02	4.93272
4.34650E-02	4.94433
4.34713E-02	4.94724
4.34750E-02	4.94899
4.34775E-02	4.95016
4.34794E-02	4.95105
4.34812E-02	4.95194
4.34825E-02	4.95254
4.34837E-02	4.95314
4.34850E-02	4.95375
4.34862E-02	4.95436
4.34875E-02	4.95498
4.34884E-02	4.95545
4.34894E-02	4.95593
4.34903E-02	4.95641
4.34913E-02	4.9569
4.34922E-02	4.9574
4.34931E-02	4.9579
4.34941E-02	4.95842
4.34950E-02	4.95894
4.34959E-02	4.95946
4.34969E-02	4.96
4.34978E-02	4.96055
4.34988E-02	4.9611
4.34997E-02	4.96167
4.35006E-02	4.96224
4.35019E-02	4.96302
4.35031E-02	4.96382
4.35044E-02	4.96463
4.35056E-02	4.96546
4.35069E-02	4.9663
4.35087E-02	4.96759
4.35106E-02	4.96891
4.35131E-02	4.9707
4.35162E-02	4.97299
4.35206E-02	4.97624
4.35288E-02	4.98236
4.35525E-02	5.00031
4.35600E-02	5.0059
4.35637E-02	5.00861
4.35675E-02	5.0112
4.35700E-02	5.01283
4.35725E-02	5.01434
4.35750E-02	5.01573
4.35775E-02	5.01697
4.35800E-02	5.01805
4.35826E-02	5.01901
4.35852E-02	5.01979
4.35879E-02	5.02042
4.35905E-02	5.0209
4.35931E-02	5.02127
4.35957E-02	5.02155
4.35993E-02	5.02183
4.36054E-02	5.02219
4.36159E-02	5.02271
4.36194E-02	5.02293
4.36224E-02	5.02316
4.36246E-02	5.02337
4.36264E-02	5.02357
4.36281E-02	5.0238
4.36294E-02	5.02399
4.36307E-02	5.02421
4.36321E-02	5.02445
4.36334E-02	5.02471
4.36347E-02	5.025
4.36356E-02	5.02521
4.36360E-02	5.02532
4.36366E-02	5.02565
4.36375E-02	5.02614
4.36384E-02	5.02665
4.36393E-02	5.02718
4.36402E-02	5.02771
4.36411E-02	5.02826
4.36420E-02	5.02881
4.36429E-02	5.02938
4.36438E-02	5.02996
4.36447E-02	5.03055
4.36456E-02	5.03115
4.36465E-02	5.03175
4.36474E-02	5.03236
4.36483E-02	5.03298
4.36492E-02	5.03361
4.36504E-02	5.03446
4.36516E-02	5.03531
4.36528E-02	5.03617
4.36540E-02	5.03704
4.36552E-02	5.03792
4.36570E-02	5.03924
4.36588E-02	5.04057
4.36613E-02	5.04234
4.36649E-02	5.04502
4.36697E-02	5.0486
4.36745E-02	5.05218
4.49665E-02	6.01497
4.50570E-02	6.08243
4.51285E-02	6.16633
4.52000E-02	6.25023
4.55000E-02	6.6663
4.57160E-02	7.03596
4.57580E-02	7.10784
4.58000E-02	7.18883
4.61000E-02	7.85837
4.63000E-02	8.41282
4.64000E-02	8.73302
4.67000E-02	9.90405
4.68360E-02	10.5672
4.69590E-02	11.2789
4.70000E-02	11.5162
4.72625E-02	13.5089
4.73000E-02	13.7936
4.74080E-02	14.8418
4.75520E-02	16.5455
4.76000E-02	17.1134
4.77070E-02	18.7632
4.78140E-02	20.413
4.78785E-02	21.6257
4.79000E-02	22.0299
4.81056E-02	26.7617
4.81350E-02	27.4377
4.81947E-02	29.0754
4.82066E-02	29.4029
4.82544E-02	30.8884
4.85170E-02	39.0584
4.87310E-02	45.1386
4.87965E-02	46.4454
4.88456E-02	47.1298
4.88620E-02	47.2926
4.89783E-02	47.3971
4.89976E-02	47.4145
4.90170E-02	47.3619
4.90945E-02	46.342
4.91526E-02	45.1335
4.91720E-02	44.6737
4.93270E-02	40.0119
4.94345E-02	36.2639
4.95420E-02	32.5157
4.97090E-02	27.1338
4.99277E-02	21.4578
4.99590E-02	20.6725
4.99992E-02	19.8165
5.02408E-02	15.708
5.02609E-02	15.3756
5.02810E-02	15.0432
5.02910E-02	14.9138
5.03109E-02	14.6548
5.03209E-02	14.5471
5.06000E-02	11.5308
5.06375E-02	11.2161
5.06563E-02	11.0588
5.06750E-02	10.9296
5.09000E-02	9.37874
5.10910E-02	8.38245
5.12000E-02	7.91182
5.15000E-02	6.88431
5.16630E-02	6.45116
5.18000E-02	6.14136
5.21000E-02	5.593
5.24369E-02	5.14363
5.24850E-02	5.07944
5.33086E-02	4.45595
5.35580E-02	4.26715
5.40000E-02	4.07686
5.48101E-02	3.84469
5.48584E-02	3.83085
5.58030E-02	3.669
5.77460E-02	3.50693
5.80000E-02	3.49832
5.84091E-02	3.48446
6.00000E-02	3.44341
6.17049E-02	3.43538
6.17115E-02	3.43535
6.20000E-02	3.43793
6.40000E-02	3.45578
6.49165E-02	3.47439
6.60000E-02	3.49639
6.80000E-02	3.55918
6.82820E-02	3.56804
7.00000E-02	3.64232
7.12960E-02	3.71457
7.16480E-02	3.7342
7.20000E-02	3.75972
7.30158E-02	3.83337
7.40000E-02	3.91069
7.42115E-02	3.9273
7.44230E-02	3.94914
7.59712E-02	4.10904
7.59794E-02	4.10989
7.59877E-02	4.11074
7.59938E-02	4.11139
7.60000E-02	4.11203
7.60063E-02	4.11291
7.60126E-02	4.11379
7.60209E-02	4.11496
7.60335E-02	4.11673
7.79298E-02	4.3835
7.79439E-02	4.38546
7.79509E-02	4.38642
7.79562E-02	4.3871
7.79615E-02	4.38775
7.79650E-02	4.38815
7.79685E-02	4.38852
7.79720E-02	4.38886
7.79763E-02	4.38923
7.79806E-02	4.38957
7.79913E-02	4.39035
7.79956E-02	4.39069
7.79989E-02	4.39096
7.80000E-02	4.39106
7.80021E-02	4.39135
7.80053E-02	4.39183
7.80085E-02	4.39233
7.80118E-02	4.39285
7.80150E-02	4.39339
7.80193E-02	4.39413
7.80257E-02	4.39529
7.80322E-02	4.39647
7.80407E-02	4.39805
7.97687E-02	4.71758
7.97859E-02	4.72075
7.97944E-02	4.72234
7.98030E-02	4.72393
7.98118E-02	4.72556
7.98206E-02	4.7272
7.98338E-02	4.72967
7.99015E-02	4.74232
8.00141E-02	4.7716
8.20000E-02	5.28814
8.25500E-02	5.46674
8.40000E-02	6.03105
8.58720E-02	7.027
8.59360E-02	7.06105
8.60000E-02	7.10964
8.63033E-02	7.33994
8.80000E-02	8.67392
8.89660E-02	9.68044
9.00000E-02	10.9865
9.20000E-02	14.3028
9.40000E-02	18.6352
9.49946E-02	20.7897
9.60200E-02	23.0238
9.71120E-02	24.6563
9.80000E-02	25.2654
9.80220E-02	25.2805
9.88863E-02	25.1689
9.89505E-02	25.1201
9.92320E-02	24.9059
9.97960E-02	24.4209
1.00000E-01	24.1741
1.00980E-01	22.7101
1.02535E-01	19.9291
1.03070E-01	18.9531
1.04000E-01	17.339
1.05850E-01	14.5662
1.05925E-01	14.4538
1.06000E-01	14.3681
1.08000E-01	12.0838
1.08400E-01	11.7042
1.09929E-01	10.4502
1.10630E-01	9.95449
1.12000E-01	9.13017
1.13450E-01	8.41361
1.14000E-01	8.1765
1.15840E-01	7.49491
1.15840E-01	7.51304
1.16250E-01	7.38142
1.16250E-01	7.38213
1.19880E-01	6.46236
1.20000E-01	6.43195
1.20039E-01	6.42471
1.21571E-01	6.13663
1.21670E-01	6.11808
1.22640E-01	5.95756
1.25190E-01	5.59875
1.26400E-01	5.4605
1.29992E-01	5.1246
1.34240E-01	4.82728
1.40000E-01	4.53592
1.40550E-01	4.5081
1.41100E-01	4.48863
1.48500E-01	4.22661
1.50000E-01	4.18772
1.51058E-01	4.16028
1.56439E-01	4.03644
1.65190E-01	3.89473
1.72852E-01	3.81161
1.72866E-01	3.81145
1.72876E-01	3.81135
1.72883E-01	3.81127
1.72890E-01	3.8112
1.72898E-01	3.81112
1.72904E-01	3.81106
1.72910E-01	3.811
1.72916E-01	3.81094
1.72923E-01	3.81087
1.72935E-01	3.81075
1.72959E-01	3.81053
1.73338E-01	3.80698
1.73353E-01	3.80684
1.73363E-01	3.80675
1.73369E-01	3.8067
1.73375E-01	3.80666
1.73379E-01	3.80664
1.73382E-01	3.80662
1.73386E-01	3.8066
1.73390E-01	3.80659
1.73394E-01	3.80659
1.73398E-01	3.80659
1.73400E-01	3.8066
1.73402E-01	3.80662
1.73406E-01	3.80669
1.73411E-01	3.80677
1.73416E-01	3.80686
1.73419E-01	3.80692
1.73425E-01	3.80706
1.73431E-01	3.80721
1.73444E-01	3.80751
1.73462E-01	3.80797
1.73472E-01	3.8082
1.73481E-01	3.8084
1.73487E-01	3.80852
1.73494E-01	3.80862
1.73500E-01	3.8087
1.73507E-01	3.80878
1.73514E-01	3.80882
1.73519E-01	3.80884
1.73528E-01	3.80886
1.73537E-01	3.80886
1.73556E-01	3.80884
1.73669E-01	3.80864
1.73688E-01	3.8086
1.73702E-01	3.80855
1.73716E-01	3.80848
1.73725E-01	3.80843
1.73763E-01	3.8082
1.74051E-01	3.80638
1.74065E-01	3.80629
1.74072E-01	3.80625
1.74079E-01	3.80621
1.74084E-01	3.80619
1.74088E-01	3.80617
1.74092E-01	3.80615
1.74095E-01	3.80614
1.74099E-01	3.80613
1.74100E-01	3.80613
1.74102E-01	3.80613
1.74106E-01	3.80613
1.74110E-01	3.80614
1.74113E-01	3.80615
1.74117E-01	3.80616
1.74119E-01	3.80617
1.74124E-01	3.80618
1.74129E-01	3.8062
1.74134E-01	3.80622
1.74138E-01	3.80624
1.74148E-01	3.80628
1.74167E-01	3.80636
1.82997E-01	3.84491
1.83200E-01	3.8458
1.85785E-01	3.86526
1.85860E-01	3.86582
1.90000E-01	3.92788
1.92590E-01	3.97523
1.97510E-01	4.06518
2.01100E-01	4.18142
2.07460E-01	4.41092
2.07460E-01	4.41519
2.11590E-01	4.59061
2.18630E-01	4.99513
2.19315E-01	5.03534
2.20000E-01	5.08193
2.27030E-01	5.56014
2.29310E-01	5.71415
2.30000E-01	5.76076
2.31622E-01	5.87036
2.35970E-01	6.17141
2.39299E-01	6.36046
2.39330E-01	6.36222
2.40000E-01	6.40099
2.43386E-01	6.59692
2.43550E-01	6.60642
2.45300E-01	6.68841
2.50000E-01	6.90863
2.50170E-01	6.91659
2.50700E-01	6.93972
2.52000E-01	6.99709
2.52760E-01	7.03064
2.54000E-01	7.14322
2.54560E-01	7.19406
2.56000E-01	7.32481
2.58000E-01	7.5197
2.58500E-01	7.56842
2.59240E-01	7.65055
2.60000E-01	7.7349
2.61190E-01	7.8864
2.62000E-01	8.00472
2.62510E-01	8.09056
2.62850E-01	8.22733
2.64000E-01	8.73756
2.64155E-01	8.80633
2.64310E-01	8.88074
2.65870E-01	9.72312
2.66016E-01	9.81859
2.66163E-01	9.91407
2.67406E-01	10.7747
2.67430E-01	10.7916
2.67501E-01	10.8485
2.67982E-01	11.233
2.68000E-01	11.2472
2.68029E-01	11.2721
2.68419E-01	11.6017
2.68441E-01	11.6203
2.68448E-01	11.6266
2.68463E-01	11.639
2.68470E-01	11.6452
2.68513E-01	11.6802
2.68530E-01	11.6943
2.68572E-01	11.7294
2.69287E-01	12.3193
2.69560E-01	12.544
2.70085E-01	12.9781
2.70130E-01	13.0153
2.70260E-01	13.1106
2.70910E-01	13.5872
2.70940E-01	13.5925
2.71530E-01	13.6184
2.71536E-01	13.6179
2.72000E-01	13.5806
2.73480E-01	13.1516
2.74000E-01	12.9127
2.74065E-01	12.8828
2.76000E-01	11.8466
2.76060E-01	11.8145
2.76600E-01	11.5478
2.78000E-01	11.2025
2.78175E-01	11.1593
2.78350E-01	11.1285
2.79230E-01	10.9735
2.80000E-01	10.8467
2.80099E-01	10.8305
2.80110E-01	10.8286
2.80296E-01	10.8411
2.81537E-01	10.9243
2.81557E-01	10.9257
2.81568E-01	10.9333
2.81580E-01	10.9421
2.81589E-01	10.9477
2.81616E-01	10.9645
2.81616E-01	10.9646
2.81952E-01	11.334
2.81970E-01	11.354
2.81970E-01	11.3548
2.81988E-01	11.387
2.82000E-01	11.4096
2.82001E-01	11.4138
2.82015E-01	11.4542
2.82033E-01	11.508
2.82040E-01	11.5284
2.82069E-01	11.6302
2.82106E-01	11.7559
2.82124E-01	11.8187
2.82130E-01	11.8404
2.82142E-01	11.8647
2.82155E-01	11.8926
2.82160E-01	11.9019
2.82167E-01	11.9053
2.82175E-01	11.9092
2.82182E-01	11.9039
2.82189E-01	11.8979
2.82209E-01	11.8812
2.82210E-01	11.8788
2.83684E-01	9.62053
2.83696E-01	9.60233
2.83713E-01	9.58781
2.83738E-01	9.5663
2.83741E-01	9.56514
2.83755E-01	9.56089
2.83770E-01	9.55997
2.84000E-01	9.54581
2.86000E-01	9.26267
2.86840E-01	9.11994
2.87110E-01	9.07406
2.88000E-01	8.97497
2.90000E-01	8.7523
2.90680E-01	8.67659
2.92960E-01	8.63297
2.94865E-01	8.59424
2.95000E-01	8.5915
2.96040E-01	8.57878
2.99162E-01	8.54064
3.00000E-01	8.5304
3.03810E-01	8.49604
3.04500E-01	8.48982
3.04554E-01	8.4896
3.04851E-01	8.4884
3.05000E-01	8.4878
3.05324E-01	8.4865
3.06295E-01	8.48259
3.07529E-01	8.47229
3.07555E-01	8.47208
3.07570E-01	8.47196
3.07585E-01	8.47183
3.07590E-01	8.47179
3.07599E-01	8.47112
3.07608E-01	8.47045
3.07626E-01	8.46912
3.07661E-01	8.46645
3.08623E-01	8.39438
3.08659E-01	8.39172
3.08677E-01	8.39039
3.08685E-01	8.38973
3.08694E-01	8.38907
3.08701E-01	8.38859
3.08708E-01	8.38811
3.08714E-01	8.38764
3.08721E-01	8.38718
3.08726E-01	8.38688
3.08730E-01	8.38659
3.08736E-01	8.3832
3.08742E-01	8.37982
3.08749E-01	8.37645
3.08755E-01	8.37309
3.08764E-01	8.36807
3.08777E-01	8.36138
3.08799E-01	8.3497
3.09067E-01	8.20632
3.09086E-01	8.19634
3.09099E-01	8.18972
3.09105E-01	8.18643
3.09111E-01	8.18591
3.09117E-01	8.18541
3.09121E-01	8.18673
3.09130E-01	8.19072
3.09142E-01	8.19598
3.09148E-01	8.19831
3.09154E-01	8.2065
3.09171E-01	8.22596
3.09203E-01	8.26498
3.09218E-01	8.28219
3.09219E-01	8.28545
3.09227E-01	8.29955
3.09236E-01	8.31359
3.09244E-01	8.32755
3.09252E-01	8.34141
3.09253E-01	8.34247
3.09260E-01	8.36165
3.09267E-01	8.37955
3.09274E-01	8.39736
3.09279E-01	8.40919
3.09287E-01	8.4312
3.09288E-01	8.43292
3.09298E-01	8.45868
3.09312E-01	8.49721
3.09323E-01	8.52712
3.09330E-01	8.54204
3.09357E-01	8.59391
3.09373E-01	8.60837
3.09387E-01	8.62198
3.09396E-01	8.63108
3.09405E-01	8.64022
3.09410E-01	8.64481
3.09415E-01	8.64576
3.09425E-01	8.64772
3.09435E-01	8.64972
3.09445E-01	8.65175
3.09455E-01	8.65381
3.09465E-01	8.65589
3.09470E-01	8.65695
3.09475E-01	8.65604
3.09485E-01	8.65426
3.09495E-01	8.65256
3.09504E-01	8.65093
3.09513E-01	8.64933
3.09523E-01	8.64774
3.09532E-01	8.64618
3.09542E-01	8.64462
3.09551E-01	8.64309
3.09565E-01	8.6408
3.09579E-01	8.63853
3.09593E-01	8.63627
3.09612E-01	8.63327
3.09626E-01	8.63103
3.09640E-01	8.62881
3.09651E-01	8.62704
3.09662E-01	8.62528
3.09679E-01	8.62265
3.09696E-01	8.62003
3.09713E-01	8.61741
3.09730E-01	8.61481
3.09740E-01	8.61327
3.09741E-01	8.61315
3.09752E-01	8.61205
3.09769E-01	8.61041
3.09786E-01	8.60878
3.09842E-01	8.60336
3.09955E-01	8.59252
3.09978E-01	8.59035
3.09994E-01	8.58874
3.10008E-01	8.58744
3.10024E-01	8.58594
3.10047E-01	8.58368
3.10079E-01	8.58068
3.10103E-01	8.57843
3.10126E-01	8.57618
3.10130E-01	8.57583
3.10142E-01	8.57545
3.10158E-01	8.57496
3.10189E-01	8.57397
3.10963E-01	8.54997
3.10994E-01	8.54899
3.11010E-01	8.5485
3.11018E-01	8.54843
3.11040E-01	8.54823
3.11100E-01	8.5477
3.11940E-01	8.54023
3.11970E-01	8.53996
3.11994E-01	8.53999
3.15000E-01	8.54443
3.16440E-01	8.54656
3.17230E-01	8.54774
3.19468E-01	8.54108
3.20027E-01	8.54038
3.23650E-01	8.53587
3.25000E-01	8.53418
3.29040E-01	8.52915
3.29520E-01	8.52961
3.35000E-01	8.53491
3.35920E-01	8.5358
3.39440E-01	8.51582
3.40000E-01	8.51425
3.43540E-01	8.5043
3.45000E-01	8.5002
3.47434E-01	8.49336
3.48370E-01	8.48925
3.50000E-01	8.47249
3.54390E-01	8.42733
3.54695E-01	8.42565
3.60000E-01	8.39648
3.63160E-01	8.3791
3.65740E-01	8.37938
3.67240E-01	8.374
3.70480E-01	8.36237
3.70810E-01	8.36119
3.70960E-01	8.36041
3.75000E-01	8.37516
3.76210E-01	8.37958
3.77410E-01	8.38397
3.78610E-01	8.39357
3.79410E-01	8.40643
3.80000E-01	8.40757
3.80170E-01	8.4079
3.81570E-01	8.4359
3.81710E-01	8.4387
3.81730E-01	8.4391
3.81850E-01	8.44802
3.82410E-01	8.48966
3.82690E-01	8.51048
3.82884E-01	8.53942
3.82981E-01	8.55389
3.83000E-01	8.55679
3.83021E-01	8.56321
3.83255E-01	8.63384
3.83648E-01	8.75263
3.83680E-01	8.76227
3.83699E-01	8.77556
3.83718E-01	8.78886
3.83731E-01	8.79773
3.83737E-01	8.80636
3.83756E-01	8.83224
3.83781E-01	8.86676
3.83832E-01	8.93582
3.84414E-01	9.80148
3.84433E-01	9.84077
3.84446E-01	9.86697
3.84452E-01	9.88008
3.84455E-01	9.89236
3.84465E-01	9.92921
3.84471E-01	9.9538
3.84474E-01	9.97379
3.84484E-01	10.0338
3.84490E-01	10.0738
3.84499E-01	10.1533
3.84508E-01	10.2329
3.84516E-01	10.3326
3.84525E-01	10.4324
3.84529E-01	10.4905
3.84547E-01	10.723
3.84560E-01	10.8974
3.84586E-01	11.2648
3.84980E-01	16.7749
3.84997E-01	17.0197
3.85015E-01	17.2218
3.85024E-01	17.3228
3.85033E-01	17.3905
3.85041E-01	17.4582
3.85050E-01	17.485
3.85061E-01	17.519
3.85067E-01	17.5081
3.85083E-01	17.4752
3.85094E-01	17.4106
3.85117E-01	17.2812
3.85139E-01	17.1182
3.85250E-01	16.3032
3.85272E-01	16.1402
3.85294E-01	15.9348
3.85305E-01	15.832
3.85311E-01	15.7649
3.85327E-01	15.5635
3.85338E-01	15.4291
3.85350E-01	15.2687
3.85405E-01	14.4661
3.85693E-01	10.1872
3.85716E-01	9.87642
3.85727E-01	9.72106
3.85738E-01	9.58645
3.85743E-01	9.51915
3.85749E-01	9.4639
3.85757E-01	9.38104
3.85760E-01	9.35344
3.85766E-01	9.30644
3.85776E-01	9.23599
3.85776E-01	9.2313
3.85785E-01	9.18423
3.85792E-01	9.1439
3.85798E-01	9.12552
3.85810E-01	9.0796
3.85817E-01	9.05435
3.85829E-01	9.02297
3.85897E-01	8.84136
3.85922E-01	8.77533
3.85935E-01	8.74769
3.85960E-01	8.69243
3.85971E-01	8.66757
3.85982E-01	8.65085
3.86004E-01	8.61643
3.86020E-01	8.59088
3.86026E-01	8.58483
3.86048E-01	8.56133
3.86113E-01	8.49084
3.86157E-01	8.44385
3.86165E-01	8.43513
3.86190E-01	8.41708
3.86223E-01	8.3931
3.86266E-01	8.36114
3.86274E-01	8.35566
3.86310E-01	8.3393
3.86342E-01	8.32463
3.86440E-01	8.28068
3.86521E-01	8.2509
3.86554E-01	8.239
3.86570E-01	8.23305
3.86587E-01	8.23026
3.86638E-01	8.22191
3.87076E-01	8.14956
3.87110E-01	8.144
3.87164E-01	8.14031
3.87432E-01	8.12191
3.87540E-01	8.11455
3.87865E-01	8.10535
3.88190E-01	8.09614
3.88438E-01	8.08915
3.88520E-01	8.08682
3.89010E-01	8.08089
3.90700E-01	8.07195
3.92000E-01	8.06509
3.93820E-01	8.0555
3.97530E-01	8.00942
3.97620E-01	8.00831
3.98960E-01	7.95977
4.00220E-01	7.90315
4.04000E-01	7.73327
4.07690E-01	7.54753
4.08000E-01	7.52262
4.11380E-01	7.26662
4.12000E-01	7.2336
4.12713E-01	7.20993
4.12802E-01	7.20697
4.13425E-01	7.2428
4.14850E-01	7.32471
4.16000E-01	7.68246
4.16760E-01	8.17796
4.16840E-01	8.254
4.16852E-01	8.26531
4.17495E-01	9.14817
4.18230E-01	10.1571
4.19300E-01	12.0724
4.19825E-01	12.6194
4.19964E-01	12.7517
4.20000E-01	12.7862
4.20111E-01	12.8041
4.20360E-01	12.8441
4.20480E-01	12.8504
4.21116E-01	12.5137
4.21469E-01	12.2124
4.21610E-01	12.0776
4.21910E-01	11.7914
4.22000E-01	11.7057
4.22390E-01	11.3344
4.23130E-01	10.6833
4.24000E-01	10.0479
4.24310E-01	9.85488
4.25770E-01	9.12918
4.26900E-01	8.7188
4.27760E-01	8.47164
4.28000E-01	8.40388
4.28590E-01	8.26214
4.30680E-01	7.85386
4.31740E-01	7.68842
4.32000E-01	7.64861
4.34230E-01	7.36358
4.36000E-01	7.17085
4.39180E-01	6.87046
4.39590E-01	6.83711
4.44000E-01	6.4784
4.46090E-01	6.32652
4.49040E-01	6.13665
4.52000E-01	5.94615
4.52208E-01	5.93279
4.56000E-01	5.69285
4.60000E-01	5.43978
4.60985E-01	5.37747
4.61060E-01	5.37229
4.61970E-01	5.30953
4.62193E-01	5.29659
4.65590E-01	5.09909
4.70000E-01	4.86518
4.75000E-01	4.5258
4.75340E-01	4.50273
4.80000E-01	4.35626
4.81580E-01	4.10287
4.84021E-01	4.09093
4.84370E-01	4.08922
4.85000E-01	4.12212
4.86250E-01	4.24708
4.86320E-01	4.2571
4.86500E-01	4.28285
4.87000E-01	4.36345
4.87820E-01	4.53511
4.88170E-01	4.6036
4.89000E-01	4.79705
4.89920E-01	5.05335
4.90430E-01	5.21148
4.90940E-01	5.36961
4.91250E-01	5.44512
4.92000E-01	5.6306
4.92750E-01	5.80235
4.94000E-01	6.03988
4.94060E-01	6.05128
4.94800E-01	6.146
4.96000E-01	6.24119
4.96160E-01	6.25389
4.96665E-01	6.27081
4.97330E-01	6.2931
4.97555E-01	6.30065
4.97570E-01	6.30115
4.97810E-01	6.31366
4.97983E-01	6.33054
4.98020E-01	6.33421
4.98028E-01	6.33892
4.98050E-01	6.35304
4.98073E-01	6.36762
4.98085E-01	6.38182
4.98144E-01	6.45282
4.98237E-01	6.56643
4.98730E-01	7.17998
4.98753E-01	7.2092
4.98765E-01	7.21735
4.98788E-01	7.23364
4.98800E-01	7.24178
4.98818E-01	7.24253
4.98828E-01	7.23723
4.98871E-01	7.21506
4.98875E-01	7.21215
4.99944E-01	6.38133
4.99976E-01	6.35655
4.99981E-01	6.35451
5.00000E-01	6.34769
5.00034E-01	6.33543
5.00047E-01	6.33066
5.00101E-01	6.32571
5.01080E-01	6.23664
5.05000E-01	6.02083
5.06355E-01	5.93366
5.07710E-01	5.8465
5.09520E-01	5.75813
5.10000E-01	5.7347
5.11270E-01	5.6727
5.14010E-01	5.56405
5.17850E-01	5.42384
5.19200E-01	5.38236
5.20000E-01	5.35778
5.21975E-01	5.2971
5.23950E-01	5.24426
5.28780E-01	5.11505
5.30000E-01	5.08549
5.40000E-01	4.87772
5.41970E-01	4.83679
5.50000E-01	4.68255
5.56470E-01	4.55829
5.60000E-01	4.50038
5.64080E-01	4.42522
5.69010E-01	4.44154
5.70000E-01	4.44097
5.75000E-01	4.43807
5.79580E-01	4.41236
5.80000E-01	4.41001
5.82990E-01	4.37865
5.84650E-01	4.40837
5.85000E-01	4.41464
5.87000E-01	4.45775
5.87320E-01	4.46466
5.88310E-01	4.45701
5.88655E-01	4.45436
5.89000E-01	4.45571
5.90850E-01	4.53536
5.90875E-01	4.53643
5.91000E-01	4.54927
5.91025E-01	4.55356
5.92250E-01	4.76375
5.93000E-01	5.02759
5.93390E-01	5.24338
5.93520E-01	5.32391
5.93872E-01	5.68011
5.94930E-01	6.77431
5.95065E-01	6.92548
5.95335E-01	7.2278
5.95470E-01	7.36872
5.96017E-01	7.65021
5.96185E-01	7.7261
5.96200E-01	7.7329
5.96900E-01	7.71982
5.97271E-01	7.64306
5.97890E-01	7.482
5.98945E-01	7.17616
5.99513E-01	7.01165
6.00150E-01	6.82685
6.00560E-01	6.7234
6.01000E-01	6.61239
6.01970E-01	6.38456
6.03000E-01	6.16191
6.03800E-01	6.00985
6.04230E-01	5.92813
6.04615E-01	5.86274
6.05000E-01	5.80772
6.05810E-01	5.69199
6.06620E-01	5.5816
6.09120E-01	5.30343
6.10000E-01	5.23743
6.13240E-01	5.03866
6.17750E-01	4.83743
6.19580E-01	4.77454
6.20000E-01	4.76011
6.20280E-01	4.75048
6.21208E-01	4.7186
6.21270E-01	4.71647
6.21437E-01	4.71194
6.23898E-01	4.645
6.23924E-01	4.64429
6.23974E-01	4.64293
6.24215E-01	4.63636
6.26433E-01	4.57588
6.26480E-01	4.5746
6.26485E-01	4.5745
6.26536E-01	4.57338
6.35319E-01	4.38347
6.40000E-01	4.29935
6.41110E-01	4.27941
6.48450E-01	4.1669
6.61270E-01	3.994
6.67690E-01	3.94254
6.77770E-01	3.86174
6.80060E-01	3.84348
6.80280E-01	3.84204
6.80571E-01	3.84045
6.85240E-01	3.8149
6.96490E-01	3.75335
7.00000E-01	3.73457
7.03970E-01	3.72074
7.10000E-01	3.69974
7.12160E-01	3.69222
7.20000E-01	3.68518
7.25000E-01	3.69549
7.25350E-01	3.69712
7.30000E-01	3.75616
7.34830E-01	3.82426
7.35560E-01	3.83476
7.37780E-01	3.86667
7.40000E-01	3.89556
7.43688E-01	3.92239
7.44215E-01	3.92623
7.48430E-01	3.93271
7.50770E-01	3.92324
7.55310E-01	3.90488
7.56750E-01	3.89969
7.58180E-01	3.89438
7.60000E-01	3.88763
7.66760E-01	3.86254
7.70000E-01	3.85905
7.73240E-01	3.85555
7.74320E-01	3.84387
7.80000E-01	3.80131
7.84454E-01	3.78966
7.84560E-01	3.78938
7.85090E-01	3.79319
7.90000E-01	3.82851
7.91870E-01	3.87159
7.97570E-01	4.08725
7.97720E-01	4.09293
7.97798E-01	4.09585
7.98860E-01	4.13575
8.00000E-01	4.18083
8.03030E-01	4.22779
8.03032E-01	4.22775
8.06500E-01	4.16704
8.06525E-01	4.16683
8.06930E-01	4.1561
8.10000E-01	4.07476
8.12350E-01	4.0125
8.20000E-01	3.84643
8.20980E-01	3.83164
8.25510E-01	3.7633
8.28170E-01	3.73284
8.30000E-01	3.71356
8.31925E-01	3.69329
8.32830E-01	3.68647
8.32887E-01	3.68603
8.33850E-01	3.67864
8.36925E-01	3.65506
8.40000E-01	3.63725
8.41600E-01	3.62799
8.44033E-01	3.6262
8.44380E-01	3.62595
8.44745E-01	3.62907
8.47218E-01	3.65023
8.47254E-01	3.65123
8.47300E-01	3.65247
8.47503E-01	3.65796
8.48819E-01	3.69367
8.48920E-01	3.69642
8.49190E-01	3.71138
8.49949E-01	3.75344
8.50000E-01	3.75624
8.50060E-01	3.76555
8.52490E-01	4.14084
8.52530E-01	4.14705
8.52550E-01	4.1531
8.52570E-01	4.15915
8.52587E-01	4.16791
8.52637E-01	4.19417
8.52704E-01	4.2292
8.54442E-01	5.24637
8.54576E-01	5.32753
8.54710E-01	5.40869
8.54770E-01	5.44877
8.54777E-01	5.45357
8.54844E-01	5.49846
8.56793E-01	6.53311
8.56826E-01	6.54044
8.56860E-01	6.54777
8.56909E-01	6.52898
8.56933E-01	6.51957
8.57055E-01	6.43616
8.58030E-01	5.76883
8.58225E-01	5.63538
8.58371E-01	5.53316
8.58420E-01	5.49909
8.58541E-01	5.43059
8.59329E-01	4.98537
8.59390E-01	4.95112
8.59466E-01	4.92033
8.59924E-01	4.73557
8.60000E-01	4.70478
8.60185E-01	4.64524
8.60370E-01	4.5857
8.60491E-01	4.55633
8.61279E-01	4.36542
8.61340E-01	4.35073
8.61422E-01	4.33881
8.63045E-01	4.10429
8.63100E-01	4.09635
8.63210E-01	4.08558
8.63540E-01	4.05327
8.64520E-01	3.97904
8.64660E-01	3.96844
8.65195E-01	3.94217
8.66666E-01	3.86994
8.66800E-01	3.86338
8.67600E-01	3.84165
8.70000E-01	3.77648
8.70860E-01	3.76098
8.70900E-01	3.76029
8.78170E-01	3.69426
8.80000E-01	3.68971
8.90000E-01	3.69689
8.94370E-01	3.71464
8.97180E-01	3.73886
8.99949E-01	3.78705
9.01927E-01	3.82147
9.09838E-01	3.97179
9.10155E-01	3.97937
9.20000E-01	4.21442
9.23466E-01	4.31119
9.23510E-01	4.31242
9.24210E-01	4.3191
9.26707E-01	4.34292
9.26760E-01	4.34343
9.26912E-01	4.34455
9.30000E-01	4.36745
9.30385E-01	4.37031
9.30722E-01	4.36954
9.30770E-01	4.36943
9.30878E-01	4.3663
9.35421E-01	4.23476
9.35450E-01	4.23393
9.35493E-01	4.23307
9.40000E-01	4.14399
9.43660E-01	4.05774
9.43750E-01	4.05663
9.49880E-01	3.94914
9.50000E-01	3.94703
9.58460E-01	3.76896
9.61970E-01	3.69507
9.67040E-01	3.59716
9.70000E-01	3.53999
9.77180E-01	3.42076
9.78730E-01	3.39502
9.80280E-01	3.3733
9.90000E-01	3.22766
9.97828E-01	3.12256
9.97875E-01	3.11141
9.97890E-01	3.10279
9.97923E-01	3.08535
9.98055E-01	2.97288
9.98100E-01	2.94412
9.98104E-01	2.94144
9.98154E-01	2.92618
9.98417E-01	2.91023
9.98575E-01	2.90283
9.99941E-01	2.8387
1.00000E+00	2.83591
1.00004E+00	2.83423
1.00937E+00	2.43159
1.01000E+00	2.40792
1.01178E+00	2.60764
1.01620E+00	3.1146
1.01621E+00	3.11562
1.01710E+00	3.21426
1.03000E+00	3.1778
1.03625E+00	3.16013
1.03660E+00	3.15914
1.03750E+00	3.15757
1.04000E+00	3.15319
1.04780E+00	3.13956
1.04890E+00	3.13836
1.05000E+00	3.13782
1.05630E+00	3.13475
1.05905E+00	3.13474
1.06000E+00	3.13473
1.07000E+00	3.14697
1.07500E+00	3.16107
1.07560E+00	3.1634
1.07780E+00	3.17598
1.08000E+00	3.18856
1.08220E+00	3.21039
1.08880E+00	3.2759
1.08940E+00	3.28476
1.09000E+00	3.29362
1.09650E+00	3.44656
1.09830E+00	3.50238
1.10000E+00	3.57516
1.10440E+00	3.82637
1.10860E+00	4.16717
1.10915E+00	4.2118
1.10985E+00	4.26135
1.11160E+00	4.37041
1.11310E+00	4.40839
1.11678E+00	4.18666
1.11800E+00	4.06992
1.12000E+00	3.81343
1.12220E+00	3.57784
1.12250E+00	3.56014
1.13000E+00	3.11787
1.13130E+00	3.08686
1.13220E+00	3.07012
1.13270E+00	3.06153
1.14000E+00	3.0081
1.14310E+00	3.01247
1.15000E+00	3.06167
1.15020E+00	3.06309
1.15045E+00	3.06437
1.15290E+00	3.0929
1.16000E+00	3.21318
1.16625E+00	3.38053
1.16630E+00	3.38187
1.16920E+00	3.4816
1.17000E+00	3.49908
1.18000E+00	3.88367
1.18850E+00	3.95287
1.19000E+00	3.97418
1.19120E+00	4.01045
1.20000E+00	4.16912
1.20300E+00	4.16495
1.20805E+00	4.11456
1.20870E+00	4.11054
1.21310E+00	4.08338
1.21655E+00	4.09969
1.21830E+00	4.12827
1.22000E+00	4.15604
1.22470E+00	4.28862
1.22480E+00	4.29227
1.22500E+00	4.30027
1.23000E+00	4.50036
1.23140E+00	4.57323
1.23450E+00	4.69303
1.23750E+00	4.76718
1.23800E+00	4.77124
1.23980E+00	4.7793
1.24000E+00	4.77367
1.24700E+00	4.57631
1.25000E+00	4.54735
1.25110E+00	4.55047
1.25630E+00	4.4515
1.26000E+00	4.26485
1.26480E+00	4.06371
1.26580E+00	4.00877
1.26790E+00	3.88802
1.27000E+00	3.77372
1.27131E+00	3.89725
1.27175E+00	3.94258
1.27183E+00	3.96752
1.27197E+00	4.03961
1.27328E+00	4.77946
1.27350E+00	4.90747
1.27420E+00	5.43835
1.27430E+00	5.50628
1.27447E+00	5.58156
1.27496E+00	5.75861
1.27500E+00	5.76469
1.27512E+00	5.74581
1.27617E+00	5.43502
1.27625E+00	5.39948
1.27745E+00	4.71198
1.27750E+00	4.68333
1.27758E+00	4.64026
1.27772E+00	4.56495
1.27780E+00	4.53335
1.27795E+00	4.49666
1.27892E+00	4.30583
1.27900E+00	4.29717
1.27950E+00	4.3311
1.28000E+00	4.3344
1.28140E+00	4.11257
1.28144E+00	4.10564
1.28330E+00	3.9444
1.28490E+00	3.90574
1.28625E+00	3.93568
1.28760E+00	3.96562
1.28761E+00	3.96582
1.29100E+00	4.20596
1.29200E+00	4.27902
1.29250E+00	4.3057
1.29490E+00	4.46536
1.29800E+00	4.56003
1.30000E+00	4.52424
1.30013E+00	4.52189
1.30110E+00	4.48016
1.30880E+00	4.05976
1.31000E+00	4.04332
1.31770E+00	3.90963
1.31850E+00	3.88433
1.32000E+00	3.83151
1.32130E+00	3.79738
1.32487E+00	3.79893
1.33000E+00	3.80117
1.33300E+00	3.78389
1.34000E+00	3.67544
1.34670E+00	3.56115
1.34870E+00	3.52533
1.35000E+00	3.50802
1.36000E+00	3.37487
1.36860E+00	3.28316
1.37000E+00	3.26823
1.37920E+00	3.1911
1.37960E+00	3.18872
1.38500E+00	3.15658
1.39000E+00	3.12485
1.39290E+00	3.11064
1.40000E+00	3.07587
1.40950E+00	3.04243
1.41000E+00	3.03904
1.41200E+00	3.0309
1.41700E+00	3.01984
1.41750E+00	3.01873
1.42000E+00	3.01329
1.43000E+00	2.99812
1.43400E+00	2.99205
1.43600E+00	2.99093
1.44000E+00	2.98868
1.44200E+00	2.98907
1.44800E+00	2.99025
1.45000E+00	2.99064
1.45400E+00	2.99536
1.46000E+00	3.00244
1.46200E+00	3.00715
1.46600E+00	3.01658
1.46800E+00	3.00156
1.47000E+00	3.00835
1.47090E+00	3.01445
1.47200E+00	3.0219
1.48000E+00	3.0509
1.48200E+00	3.059
1.48400E+00	3.06609
1.48950E+00	3.091
1.49000E+00	3.09261
1.49220E+00	3.10641
1.49270E+00	3.10702
1.50000E+00	3.14948
1.50095E+00	3.15367
1.50920E+00	3.2078
1.52000E+00	3.29102
1.53375E+00	3.41307
1.53650E+00	3.43835
1.54020E+00	3.47253
1.56000E+00	3.61619
1.56600E+00	3.52434
1.58000E+00	3.75731
1.58380E+00	3.7785
1.59310E+00	3.79479
1.60000E+00	3.78464
1.60195E+00	3.77643
1.60390E+00	3.76823
1.60438E+00	3.76623
1.62000E+00	3.62803
1.62048E+00	3.63317
1.62375E+00	3.66858
1.62600E+00	3.67361
1.63650E+00	3.72969
1.63660E+00	3.73028
1.63670E+00	3.73432
1.64000E+00	3.86766
1.64100E+00	3.92953
1.64680E+00	4.37423
1.65029E+00	4.31053
1.65030E+00	4.30971
1.65610E+00	3.92846
1.66000E+00	3.74391
1.66680E+00	3.54033
1.67805E+00	3.36375
1.68000E+00	3.33563
1.68527E+00	3.29524
1.68750E+00	3.2782
1.69000E+00	3.24696
1.70000E+00	3.17787
1.70110E+00	3.17252
1.72000E+00	3.04935
1.73610E+00	2.95895
1.74000E+00	2.93705
1.75410E+00	2.86713
1.76000E+00	2.83786
1.78000E+00	2.75102
1.78660E+00	2.72643
1.80000E+00	2.67651
1.82700E+00	2.59787
1.83000E+00	2.59016
1.85000E+00	2.55534
1.85480E+00	2.55285
1.87270E+00	2.5548
1.88850E+00	2.58991
1.90147E+00	2.65563
1.90580E+00	2.69682
1.92000E+00	2.84113
1.92310E+00	2.86953
1.92500E+00	2.91408
1.92560E+00	2.92611
1.93280E+00	3.03213
1.95070E+00	3.37222
1.97500E+00	3.59554
1.97780E+00	3.62303
1.98570E+00	3.64342
1.99643E+00	3.51949
1.99680E+00	3.51492
2.00000E+00	3.47597
2.00920E+00	3.48071
2.03000E+00	3.18965
2.03760E+00	3.084
2.07290E+00	2.80259
2.08500E+00	2.74022
2.11000E+00	2.64954
2.11840E+00	2.61477
2.15000E+00	2.55629
2.16050E+00	2.52795
2.18000E+00	2.43554
2.18655E+00	2.40686
2.19000E+00	2.39108
2.20000E+00	2.43684
2.21137E+00	2.49081
2.21565E+00	2.54758
2.22420E+00	2.66582
2.23000E+00	2.86738
2.23890E+00	3.17067
2.24240E+00	3.27774
2.26400E+00	2.95461
2.26500E+00	2.95683
2.27880E+00	2.97538
2.29925E+00	2.75154
2.30000E+00	2.74611
2.31970E+00	2.58555
2.33110E+00	2.41299
2.34000E+00	2.44836
2.34837E+00	2.49186
2.37000E+00	2.48867
2.38340E+00	2.49205
2.40000E+00	2.57918
2.42320E+00	2.70138
2.46650E+00	3.04052
2.48000E+00	3.03213
2.49150E+00	3.01933
2.52330E+00	3.21405
2.53360E+00	3.23561
2.55339E+00	3.16969
2.58000E+00	3.06931
2.60000E+00	3.0007
2.60800E+00	2.97308
2.64730E+00	2.83148
2.66000E+00	2.85593
2.68720E+00	2.91777
2.70000E+00	2.86378
2.77250E+00	2.52815
2.78000E+00	2.52667
2.80000E+00	2.51483
2.83000E+00	2.49586
2.84760E+00	2.49182
2.92000E+00	2.30163
2.92760E+00	2.28077
2.94825E+00	2.22424
2.97000E+00	2.16584
2.99200E+00	2.10931
2.99430E+00	2.11674
3.00000E+00	2.13522
3.00769E+00	2.1601
3.00944E+00	2.1756
3.02000E+00	2.28203
3.04780E+00	2.56511
3.06372E+00	2.55384
3.08420E+00	2.12714
3.09330E+00	2.12102
3.10000E+00	2.19384
3.12000E+00	2.41085
3.12520E+00	2.46645
3.17000E+00	2.09348
3.17300E+00	2.06886
3.20000E+00	2.0835
3.20466E+00	2.08593
3.20610E+00	2.0923
3.23000E+00	2.1985
3.23440E+00	2.21876
3.25150E+00	2.23025
3.26991E+00	2.16975
3.28000E+00	2.12043
3.29240E+00	2.06558
3.30000E+00	2.03152
3.33680E+00	1.8666
3.34000E+00	1.86921
3.35810E+00	1.88272
3.35946E+00	1.88376
3.38680E+00	2.02849
3.40000E+00	2.20228
3.41410E+00	2.38025
3.42780E+00	2.43225
3.44274E+00	2.3554
3.46000E+00	2.10398
3.46530E+00	2.02878
3.48924E+00	2.05771
3.50510E+00	2.21786
3.52000E+00	1.97562
3.52440E+00	1.90267
3.52496E+00	1.899
3.54040E+00	1.83222
3.58000E+00	2.20934
3.58480E+00	2.25306
3.60000E+00	2.22778
3.61550E+00	2.20172
3.64280E+00	2.32264
3.66550E+00	2.28766
3.70420E+00	1.71673
3.74405E+00	1.77443
3.77360E+00	2.01048
3.80000E+00	2.01739
3.80410E+00	2.01939
3.83500E+00	2.02798
3.85000E+00	1.95131
3.85984E+00	1.90227
3.86339E+00	1.90052
3.89990E+00	1.89551
3.91700E+00	1.98168
3.95340E+00	1.97599
3.99090E+00	1.78566
4.00000E+00	1.77643
4.01890E+00	1.75681
4.02340E+00	1.77497
4.08100E+00	2.00502
4.11210E+00	2.06841
4.11440E+00	2.06279
4.13475E+00	2.0147
4.15000E+00	1.95011
4.19650E+00	1.76254
4.20000E+00	1.75938
4.21130E+00	1.74961
4.21650E+00	1.74566
4.22600E+00	1.88632
4.23000E+00	1.94555
4.24610E+00	2.18201
4.25000E+00	2.24013
4.25030E+00	2.24451
4.25203E+00	2.26972
4.26540E+00	2.35145
4.29666E+00	2.28675
4.30000E+00	2.25729
4.31000E+00	2.16877
4.34090E+00	1.89003
4.34867E+00	1.91479
4.35000E+00	1.92012
4.40000E+00	2.08129
4.40310E+00	2.0915
4.43200E+00	2.05149
4.50080E+00	2.25332
4.55660E+00	2.19504
4.60000E+00	2.10087
4.61040E+00	2.07801
4.66290E+00	1.96484
4.68740E+00	2.03936
4.70000E+00	1.9817
4.74510E+00	1.77415
4.79050E+00	1.81626
4.79790E+00	1.82504
4.79840E+00	1.8259
4.80000E+00	1.82516
4.85400E+00	1.79709
4.89480E+00	1.84802
4.90000E+00	1.85451
4.90500E+00	1.8605
4.93160E+00	1.82326
4.94280E+00	1.80839
4.97000E+00	1.64307
4.97610E+00	1.6067
4.99968E+00	1.61724
5.00000E+00	1.61777
5.00305E+00	1.62452
5.03000E+00	1.6945
5.04500E+00	1.73345
5.10000E+00	1.82009
5.12940E+00	1.86631
5.17000E+00	1.85283
5.17160E+00	1.85196
5.20000E+00	1.84224
5.21380E+00	1.83743
5.25000E+00	1.7731
5.30000E+00	1.68443
5.30480E+00	1.67588
5.37710E+00	1.8166
5.38810E+00	1.83912
5.40000E+00	1.86252
5.42000E+00	1.90138
5.44030E+00	1.9414
5.50000E+00	1.92617
5.56020E+00	1.91251
5.59360E+00	1.83763
5.60000E+00	1.8373
5.65090E+00	1.83353
5.69350E+00	1.83184
5.70000E+00	1.85144
5.71350E+00	1.8892
5.71830E+00	1.90293
5.73350E+00	1.94714
5.75410E+00	1.94349
5.79100E+00	1.93795
5.80000E+00	1.93778
5.81120E+00	1.9356
5.83410E+00	1.8877
5.86670E+00	1.82043
5.87000E+00	1.82939
5.90000E+00	1.90666
5.90890E+00	1.92956
5.91940E+00	1.88615
5.92000E+00	1.88369
5.93680E+00	1.81652
5.94890E+00	1.76814
5.96890E+00	1.68747
5.98000E+00	1.68078
5.99000E+00	1.67641
6.00000E+00	1.67209
6.02985E+00	1.65615
6.04590E+00	1.64806
6.05970E+00	1.64116
6.08801E+00	1.72786
6.09920E+00	1.76216
6.11376E+00	1.76132
6.16000E+00	1.75882
6.16204E+00	1.75867
6.19570E+00	1.75652
6.20000E+00	1.74849
6.20429E+00	1.74044
6.24125E+00	1.67124
6.27910E+00	1.60061
6.28774E+00	1.60058
6.30000E+00	1.60063
6.32666E+00	1.60043
6.36999E+00	1.60041
6.40000E+00	1.60064
6.41468E+00	1.60047
6.46344E+00	1.60035
6.49850E+00	1.60058
6.50000E+00	1.60332
6.55550E+00	1.70438
6.56250E+00	1.70176
6.59000E+00	1.69165
6.61700E+00	1.68126
6.61719E+00	1.68081
6.68597E+00	1.51455
6.70000E+00	1.48076
6.70668E+00	1.46424
6.72670E+00	1.41578
6.74355E+00	1.42501
6.79959E+00	1.45619
6.80000E+00	1.45632
6.80766E+00	1.46057
6.81000E+00	1.46189
6.85390E+00	1.57116
6.87635E+00	1.57193
6.93818E+00	1.57467
6.97000E+00	1.5764
6.99870E+00	1.57763
7.00000E+00	1.57969
7.06250E+00	1.6744
7.10000E+00	1.73149
7.11280E+00	1.75077
7.17188E+00	1.74165
7.18000E+00	1.74048
7.22000E+00	1.73431
7.28000E+00	1.72347
7.28467E+00	1.72312
7.28705E+00	1.72296
7.35000E+00	1.71128
7.35410E+00	1.71048
7.36157E+00	1.7124
7.39969E+00	1.72255
7.40000E+00	1.72273
7.45386E+00	1.73656
7.50000E+00	1.74876
7.52000E+00	1.75397
7.57350E+00	1.76805
7.67000E+00	1.70238
7.67440E+00	1.69895
7.70000E+00	1.71945
7.71875E+00	1.73443
7.75340E+00	1.76231
7.82578E+00	1.68012
7.83000E+00	1.67586
7.84990E+00	1.65276
7.89681E+00	1.65627
7.90000E+00	1.65596
7.90625E+00	1.65644
7.95000E+00	1.65991
8.00000E+00	1.66439
8.12500E+00	1.6738
8.13000E+00	1.67421
8.13695E+00	1.67517
8.14390E+00	1.67573
8.30190E+00	1.73919
8.31250E+00	1.73653
8.33000E+00	1.73231
8.33831E+00	1.72946
8.41740E+00	1.70837
8.50000E+00	1.68634
8.63100E+00	1.65285
8.66000E+00	1.70108
8.66610E+00	1.71052
8.70000E+00	1.7662
8.70120E+00	1.76807
8.71875E+00	1.76687
8.72000E+00	1.76679
8.86000E+00	1.75744
8.90625E+00	1.75404
9.00000E+00	1.7477
9.00781E+00	1.74714
9.01550E+00	1.74659
9.02307E+00	1.74605
9.03053E+00	1.74552
9.03786E+00	1.74499
9.04508E+00	1.74448
9.05219E+00	1.74397
9.06263E+00	1.74323
9.07285E+00	1.7425
9.08281E+00	1.74179
9.09257E+00	1.74109
9.10207E+00	1.74041
9.11137E+00	1.73975
9.12043E+00	1.7391
9.12930E+00	1.73847
9.13795E+00	1.73785
9.14641E+00	1.73725
9.15465E+00	1.73666
9.16273E+00	1.73609
9.17059E+00	1.73553
9.17829E+00	1.73498
9.18826E+00	1.73427
9.19801E+00	1.73358
9.20744E+00	1.7329
9.21659E+00	1.73225
9.22544E+00	1.73162
9.23402E+00	1.73102
9.24233E+00	1.73043
9.25000E+00	1.72988
9.25039E+00	1.72986
9.25819E+00	1.72935
9.26574E+00	1.72886
9.27306E+00	1.72838
9.28016E+00	1.72792
9.29041E+00	1.72725
9.30013E+00	1.72662
9.30945E+00	1.72602
9.31829E+00	1.72545
9.32676E+00	1.7249
9.33480E+00	1.72438
9.34250E+00	1.72389
9.35234E+00	1.72325
9.36157E+00	1.72266
9.37022E+00	1.72211
9.37833E+00	1.72159
9.38594E+00	1.7211
9.39641E+00	1.72043
9.40602E+00	1.71982
9.41464E+00	1.71928
9.42256E+00	1.71878
9.43224E+00	1.71817
9.44071E+00	1.71764
9.44812E+00	1.71717
9.45744E+00	1.71659
9.46470E+00	1.71614
9.46525E+00	1.71603
9.47393E+00	1.71419
9.48324E+00	1.71223
9.49162E+00	1.71047
9.50000E+00	1.70871
9.52319E+00	1.70384
9.54543E+00	1.69918
9.55963E+00	1.6962
9.58715E+00	1.69043
9.61296E+00	1.68503
9.62500E+00	1.68251
9.63715E+00	1.68006
9.65983E+00	1.67549
9.68109E+00	1.67121
9.70102E+00	1.66721
9.71920E+00	1.66356
9.72846E+00	1.66579
9.75365E+00	1.67187
9.77626E+00	1.67734
9.79701E+00	1.68237
9.82238E+00	1.68852
9.84459E+00	1.69391
9.87308E+00	1.70085
9.89589E+00	1.70641
9.91497E+00	1.71107
9.93623E+00	1.71628
9.95000E+00	1.71966
9.95901E+00	1.7219
9.98240E+00	1.72775
9.98633E+00	1.72852
1.00000E+01	1.73124
1.00167E+01	1.73382
1.00459E+01	1.73835
1.00880E+01	1.74488
1.01232E+01	1.75037
1.01379E+01	1.75265
1.01580E+01	1.75579
1.01832E+01	1.75972
1.02228E+01	1.76593
1.02661E+01	1.77274
1.02736E+01	1.77393
1.03013E+01	1.7783
1.03019E+01	1.7784
1.03514E+01	1.78625
1.03810E+01	1.79096
1.04025E+01	1.78752
1.04373E+01	1.78197
1.04466E+01	1.7805
1.04791E+01	1.77535
1.05000E+01	1.77205
1.05275E+01	1.76762
1.05625E+01	1.76196
1.05940E+01	1.75689
1.06411E+01	1.74932
1.06760E+01	1.74374
1.07069E+01	1.73879
1.07435E+01	1.73297
1.07802E+01	1.72713
1.08266E+01	1.71978
1.08520E+01	1.71576
1.08557E+01	1.7159
1.08951E+01	1.71735
1.09073E+01	1.7178
1.09691E+01	1.72013
1.10000E+01	1.72132
1.10051E+01	1.72146
1.10488E+01	1.72269
1.10918E+01	1.7239
1.11604E+01	1.72588
1.11760E+01	1.72634
1.12046E+01	1.72719
1.12790E+01	1.72941
1.13178E+01	1.73061
1.13627E+01	1.73199
1.13691E+01	1.73219
1.14480E+01	1.73471
1.14775E+01	1.73568
1.15000E+01	1.73642
1.15230E+01	1.73706
1.15472E+01	1.73773
1.16302E+01	1.74014
1.16622E+01	1.74111
1.16856E+01	1.74181
1.17227E+01	1.74293
1.18217E+01	1.74608
1.18268E+01	1.74624
1.18505E+01	1.74703
1.19109E+01	1.74905
1.19570E+01	1.75066
1.20000E+01	1.7508
1.20177E+01	1.75076
1.21693E+01	1.75041
1.21797E+01	1.75038
1.21872E+01	1.75037
1.23301E+01	1.75022
1.23410E+01	1.75022
1.23591E+01	1.75023
1.24976E+01	1.75026
1.25000E+01	1.75027
1.25151E+01	1.75031
1.25335E+01	1.75036
1.26703E+01	1.75076
1.26917E+01	1.75085
1.27103E+01	1.75093
1.27880E+01	1.75127
1.28000E+01	1.75133
1.28707E+01	1.75112
1.28897E+01	1.75106
1.29293E+01	1.75094
1.30000E+01	1.75081
1.30715E+01	1.75083
1.31834E+01	1.75086
1.32500E+01	1.75088
1.32559E+01	1.75089
1.33694E+01	1.75105
1.34429E+01	1.75115
1.35000E+01	1.75123
1.35781E+01	1.75108
1.36326E+01	1.75105
1.36905E+01	1.75101
1.36970E+01	1.751
1.38249E+01	1.75513
1.38594E+01	1.75624
1.38902E+01	1.75726
1.40000E+01	1.7609
1.40200E+01	1.76145
1.41000E+01	1.7637
1.41975E+01	1.76726
1.42178E+01	1.76799
1.43978E+01	1.77457
1.44183E+01	1.77531
1.45000E+01	1.77829
1.46009E+01	1.78203
1.46218E+01	1.7828
1.48000E+01	1.78941
1.48069E+01	1.78959
1.48281E+01	1.79013
1.50000E+01	1.7946
1.50158E+01	1.79512
1.50372E+01	1.79582
1.52277E+01	1.80206
1.52494E+01	1.80278
1.54425E+01	1.80911
1.54645E+01	1.80983
1.56010E+01	1.81431
1.56827E+01	1.81365
1.57500E+01	1.81312
1.58211E+01	1.81257
1.59000E+01	1.81197
1.59040E+01	1.81195
1.60000E+01	1.81138
1.61283E+01	1.81036
1.62257E+01	1.80959
1.63559E+01	1.80856
1.64546E+01	1.80778
1.65866E+01	1.80673
1.66868E+01	1.80594
1.67500E+01	1.80544
1.68206E+01	1.80499
1.69222E+01	1.80434
1.70000E+01	1.80385
1.70580E+01	1.80361
1.72000E+01	1.80304
1.72398E+01	1.80271
1.72986E+01	1.80222
1.74831E+01	1.80068
1.75427E+01	1.80019
1.77297E+01	1.79863
1.77500E+01	1.79846
1.77902E+01	1.79818
1.79799E+01	1.79687
1.80000E+01	1.79673
1.80411E+01	1.79687
1.82539E+01	1.79757
1.82957E+01	1.79771
1.85115E+01	1.79843
1.85538E+01	1.79857
1.87726E+01	1.7993
1.88156E+01	1.79945
1.90000E+01	1.80006
1.90375E+01	1.79973
1.90810E+01	1.79935
1.93061E+01	1.79738
1.93502E+01	1.79699
1.95784E+01	1.79499
1.96232E+01	1.7946
1.98547E+01	1.79257
1.99001E+01	1.79217
2.00000E+01	1.7913