E(MeV)	"GA-69(N,TOT)"
1.00000E-11	142.859
1.10304E-11	136.081
1.10780E-11	135.794
1.21669E-11	129.62
1.22194E-11	129.347
1.34206E-11	123.471
1.34785E-11	123.211
1.48034E-11	117.619
1.48673E-11	117.372
1.63287E-11	112.05
1.63991E-11	111.815
1.80111E-11	106.75
1.80889E-11	106.527
1.98669E-11	101.707
1.99527E-11	101.494
2.19139E-11	96.9085
2.20085E-11	96.706
2.41719E-11	92.3429
2.42762E-11	92.1503
2.66625E-11	87.9993
2.67776E-11	87.816
2.94097E-11	83.8753
2.97451E-11	83.4158
3.24400E-11	79.9504
3.30397E-11	79.245
3.57825E-11	76.2159
3.67011E-11	75.2884
3.94694E-11	72.663
4.07662E-11	71.539
4.35362E-11	69.2833
4.52839E-11	67.9833
4.80221E-11	66.0688
5.02996E-11	64.6149
5.29701E-11	63.0119
5.58738E-11	61.4215
5.84280E-11	60.1054
6.20625E-11	58.3975
6.44483E-11	57.3424
6.89402E-11	55.5317
7.10888E-11	54.7163
7.65761E-11	52.8192
7.84136E-11	52.2209
8.50622E-11	50.2499
8.64931E-11	49.8502
9.44839E-11	47.8191
9.54051E-11	47.5984
1.04955E-10	45.5179
1.05235E-10	45.4603
1.16078E-10	43.4359
1.16579E-10	43.3504
1.28039E-10	41.5175
1.29499E-10	41.3043
1.41231E-10	39.6969
1.43842E-10	39.3707
1.55784E-10	37.9726
1.60902E-10	37.4267
1.71835E-10	36.3352
1.79985E-10	35.5949
1.89540E-10	34.7816
2.01331E-10	33.8697
2.09070E-10	33.3082
2.25208E-10	32.2457
2.30612E-10	31.9117
2.51918E-10	30.7179
2.54374E-10	30.5888
2.80584E-10	29.342
2.83783E-10	29.2035
3.09494E-10	28.1672
3.19662E-10	27.7952
3.41383E-10	27.0535
3.60097E-10	26.4745
3.76558E-10	25.9992
4.08487E-10	25.1657
4.15358E-10	24.9982
4.58155E-10	24.0572
4.63379E-10	23.9532
5.05362E-10	23.1769
5.29330E-10	22.7765
5.57433E-10	22.34
6.04697E-10	21.6786
6.14869E-10	21.546
6.78223E-10	20.8042
6.95634E-10	20.6203
7.48105E-10	20.1073
8.05851E-10	19.5999
8.25188E-10	19.4422
9.10213E-10	18.8216
9.40118E-10	18.6253
1.00400E-09	18.2381
1.10449E-09	17.6929
1.10745E-09	17.678
1.22155E-09	17.1666
1.31585E-09	16.7887
1.34742E-09	16.6718
1.48625E-09	16.2147
1.58984E-09	15.9102
1.63939E-09	15.7759
1.80831E-09	15.3695
1.94789E-09	15.0705
1.99463E-09	14.9782
2.20016E-09	14.6189
2.42685E-09	14.267
2.43733E-09	14.2525
2.67691E-09	13.9497
2.95273E-09	13.6415
3.13640E-09	13.4594
3.25697E-09	13.3495
3.59256E-09	13.0804
3.96272E-09	12.8183
4.15066E-09	12.7005
4.37103E-09	12.5739
4.82141E-09	12.3467
5.31819E-09	12.1262
5.76911E-09	11.9495
5.86616E-09	11.9146
6.47059E-09	11.7244
7.13730E-09	11.5405
7.87271E-09	11.3624
8.54022E-09	11.2201
8.68389E-09	11.192
9.57865E-09	11.0395
1.05656E-08	10.8926
1.16543E-08	10.7508
1.28551E-08	10.6138
1.38474E-08	10.5144
1.41796E-08	10.4839
1.56406E-08	10.3672
1.72522E-08	10.2552
1.90298E-08	10.1474
2.09906E-08	10.0436
2.31534E-08	9.94351
2.52419E-08	9.85819
2.52962E-08	9.8561
2.53000E-08	9.85596
2.79068E-08	9.77074
3.07823E-08	9.68919
3.39540E-08	9.61109
3.74525E-08	9.53628
4.13115E-08	9.46458
4.55681E-08	9.39584
5.02633E-08	9.32986
5.54423E-08	9.26638
6.11549E-08	9.20513
6.37799E-08	9.18047
6.74561E-08	9.1491
7.44066E-08	9.09784
8.20732E-08	9.04898
9.05297E-08	9.00245
9.98577E-08	8.95816
1.10147E-07	8.91583
1.21496E-07	8.8753
1.34014E-07	8.83658
1.47823E-07	8.79959
1.63054E-07	8.76423
1.79855E-07	8.73046
1.98386E-07	8.69826
2.20371E-07	8.66511
2.43077E-07	8.63541
2.68123E-07	8.6069
2.95750E-07	8.5795
3.26223E-07	8.55313
3.59836E-07	8.5277
3.72653E-07	8.51924
3.96913E-07	8.50473
4.40876E-07	8.48211
4.86303E-07	8.46188
5.36410E-07	8.44258
5.91680E-07	8.42414
6.52645E-07	8.40652
7.19891E-07	8.38968
7.88543E-07	8.3748
8.75885E-07	8.35826
9.66133E-07	8.34346
1.06568E-06	8.32926
1.17549E-06	8.31561
1.29660E-06	8.3025
1.43020E-06	8.28987
1.57757E-06	8.27769
1.72801E-06	8.26682
1.90606E-06	8.25539
2.08772E-06	8.24507
2.28682E-06	8.235
2.52245E-06	8.2244
2.78235E-06	8.21405
3.06904E-06	8.20387
3.38526E-06	8.19387
3.76022E-06	8.18325
4.14767E-06	8.17339
4.54320E-06	8.16423
5.01132E-06	8.1543
5.52767E-06	8.14432
6.09723E-06	8.13418
6.72547E-06	8.12386
7.47040E-06	8.11252
8.24013E-06	8.10159
8.96272E-06	8.09189
9.74868E-06	8.08186
1.07531E-05	8.06963
1.18611E-05	8.05682
1.30833E-05	8.04329
1.42305E-05	8.0311
1.52631E-05	8.02037
1.68358E-05	8.00451
1.84413E-05	7.98882
2.03414E-05	7.97072
2.22802E-05	7.95269
2.44049E-05	7.93332
2.69195E-05	7.91088
2.96932E-05	7.88658
3.25233E-05	7.8622
3.53753E-05	7.83801
3.84775E-05	7.81207
4.12694E-05	7.78906
4.33674E-05	7.77191
4.65141E-05	7.74655
4.88247E-05	7.72818
4.91951E-05	7.72436
5.13068E-05	7.70277
5.35091E-05	7.68044
5.61996E-05	7.65349
5.86119E-05	7.62967
6.11278E-05	7.60522
6.33052E-05	7.58442
6.55633E-05	7.56328
6.73873E-05	7.54664
6.78986E-05	7.53986
6.98279E-05	7.51478
7.18121E-05	7.48956
7.33390E-05	7.47062
7.48946E-05	7.45183
7.59513E-05	7.43936
7.75661E-05	7.42093
7.86150E-05	7.40941
7.86604E-05	7.40863
7.97702E-05	7.39003
8.08956E-05	7.37174
8.14623E-05	7.36272
8.26115E-05	7.345
8.34857E-05	7.33207
8.43680E-05	7.31957
8.52586E-05	7.30758
8.55089E-05	7.30442
8.61576E-05	7.29073
8.70693E-05	7.27238
8.79895E-05	7.25489
8.89183E-05	7.23846
8.98559E-05	7.22333
9.04375E-05	7.21485
9.04897E-05	7.21353
9.11236E-05	7.1984
9.17664E-05	7.18412
9.24092E-05	7.17106
9.30610E-05	7.15924
9.36634E-05	7.14985
9.37129E-05	7.14843
9.42087E-05	7.13542
9.47045E-05	7.12366
9.52026E-05	7.11327
9.57054E-05	7.10441
9.62082E-05	7.09744
9.63249E-05	7.09632
9.67157E-05	7.086
9.72256E-05	7.07508
9.77355E-05	7.0671
9.80802E-05	7.06362
9.83681E-05	7.06217
9.84249E-05	7.06084
9.87696E-05	7.05469
9.91144E-05	7.05073
9.94639E-05	7.0492
9.97559E-05	7.05025
9.98135E-05	7.0492
1.00163E-04	7.0461
1.00513E-04	7.04677
1.00867E-04	7.05159
1.01163E-04	7.05966
1.01222E-04	7.05967
1.01488E-04	7.06351
1.01753E-04	7.071
1.02021E-04	7.0826
1.02234E-04	7.09554
1.02290E-04	7.09711
1.02560E-04	7.10991
1.02830E-04	7.12877
1.03099E-04	7.15454
1.03314E-04	7.18142
1.03369E-04	7.1862
1.03638E-04	7.21899
1.03908E-04	7.26241
1.04038E-04	7.28817
1.04088E-04	7.29611
1.04268E-04	7.33068
1.04448E-04	7.3721
1.04627E-04	7.42117
1.04772E-04	7.46746
1.04807E-04	7.47721
1.05029E-04	7.5515
1.05176E-04	7.61034
1.05322E-04	7.67693
1.05324E-04	7.67753
1.05471E-04	7.74765
1.05619E-04	7.82815
1.05762E-04	7.91782
1.05766E-04	7.92008
1.05914E-04	8.0177
1.06044E-04	8.11636
1.06215E-04	8.26484
1.06276E-04	8.32738
1.06385E-04	8.43188
1.06498E-04	8.55691
1.06612E-04	8.69672
1.06725E-04	8.85298
1.06759E-04	8.90539
1.06839E-04	9.02183
1.06941E-04	9.18914
1.07077E-04	9.44156
1.07213E-04	9.73238
1.07213E-04	9.73238
1.07304E-04	9.94351
1.07395E-04	10.1767
1.07486E-04	10.4345
1.07577E-04	10.7199
1.07662E-04	11.0154
1.07663E-04	11.0197
1.07741E-04	11.3127
1.07821E-04	11.6393
1.07900E-04	11.9987
1.07980E-04	12.3947
1.08059E-04	12.8319
1.08108E-04	13.129
1.08138E-04	13.3149
1.08218E-04	13.8494
1.08289E-04	14.3814
1.08353E-04	14.8999
1.08417E-04	15.4665
1.08476E-04	16.0425
1.08480E-04	16.0872
1.08544E-04	16.7727
1.08607E-04	17.5264
1.08671E-04	18.3571
1.08693E-04	18.6851
1.08734E-04	19.2814
1.08791E-04	20.1938
1.08839E-04	21.0312
1.08841E-04	21.0715
1.08891E-04	22.0362
1.08941E-04	23.0888
1.08943E-04	23.1411
1.08991E-04	24.2498
1.09015E-04	24.8576
1.09041E-04	25.5299
1.09091E-04	26.9435
1.09102E-04	27.298
1.09141E-04	28.5154
1.09166E-04	29.3828
1.09186E-04	30.1001
1.09227E-04	31.6695
1.09234E-04	31.9552
1.09268E-04	33.3978
1.09279E-04	33.9245
1.09309E-04	35.306
1.09325E-04	36.1233
1.09349E-04	37.42
1.09370E-04	38.5896
1.09390E-04	39.7718
1.09415E-04	41.3702
1.09431E-04	42.3977
1.09449E-04	43.7022
1.09472E-04	45.3479
1.09483E-04	46.2602
1.09508E-04	48.2872
1.09517E-04	49.0973
1.09540E-04	51.1425
1.09547E-04	51.8148
1.09572E-04	54.3025
1.09574E-04	54.5512
1.09601E-04	57.5616
1.09604E-04	57.8152
1.09629E-04	60.8875
1.09635E-04	61.7346
1.09656E-04	64.5431
1.09667E-04	66.1212
1.09683E-04	68.5377
1.09691E-04	69.7605
1.09710E-04	72.9732
1.09715E-04	73.737
1.09729E-04	76.2201
1.09739E-04	78.0981
1.09747E-04	79.6707
1.09758E-04	81.9369
1.09765E-04	83.3999
1.09781E-04	86.8436
1.09783E-04	87.3765
1.09801E-04	91.6784
1.09803E-04	92.2214
1.09819E-04	96.34
1.09826E-04	98.1242
1.09840E-04	102.123
1.09849E-04	104.601
1.09861E-04	108.423
1.09872E-04	111.717
1.09882E-04	115.292
1.09894E-04	119.531
1.09898E-04	120.81
1.09913E-04	126.742
1.09917E-04	128.13
1.09929E-04	133.095
1.09937E-04	136.402
1.09945E-04	139.892
1.09960E-04	147.036
1.09963E-04	148.186
1.09976E-04	154.829
1.09989E-04	161.304
1.09993E-04	163.836
1.10014E-04	175.352
1.10015E-04	175.871
1.10034E-04	188.038
1.10040E-04	192.048
1.10055E-04	201.726
1.10066E-04	209.938
1.10075E-04	216.386
1.10084E-04	223.593
1.10095E-04	232.317
1.10103E-04	238.197
1.10114E-04	247.655
1.10130E-04	261.982
1.10132E-04	263.707
1.10150E-04	281.123
1.10157E-04	288.158
1.10168E-04	299.539
1.10184E-04	316.772
1.10186E-04	318.828
1.10204E-04	339.574
1.10212E-04	347.946
1.10223E-04	361.364
1.10239E-04	381.659
1.10241E-04	384.053
1.10259E-04	408.207
1.10266E-04	417.964
1.10286E-04	446.296
1.10293E-04	456.712
1.10313E-04	486.985
1.10330E-04	512.003
1.10341E-04	529.57
1.10366E-04	570.921
1.10368E-04	574.001
1.10404E-04	636.152
1.10411E-04	648.693
1.10450E-04	715.9
1.10520E-04	841.477
1.10557E-04	902.961
1.10564E-04	914.521
1.10593E-04	960.318
1.10613E-04	989.028
1.10629E-04	1012.17
1.10646E-04	1032.54
1.10664E-04	1054.76
1.10677E-04	1067.91
1.10696E-04	1088.07
1.10706E-04	1095.58
1.10722E-04	1108.6
1.10738E-04	1118.73
1.10749E-04	1125.13
1.10765E-04	1131.6
1.10776E-04	1135.54
1.10796E-04	1139.16
1.10799E-04	1139.56
1.10820E-04	1138.96
1.10825E-04	1138.62
1.10848E-04	1132.74
1.10854E-04	1131.05
1.10862E-04	1127.09
1.10883E-04	1116.65
1.10890E-04	1111.21
1.10913E-04	1094.78
1.10918E-04	1089.31
1.10945E-04	1063.57
1.10947E-04	1062.03
1.10975E-04	1029.19
1.10978E-04	1025.38
1.11011E-04	981.327
1.11014E-04	975.941
1.11052E-04	918.171
1.11054E-04	915.375
1.11091E-04	855.655
1.11098E-04	843.568
1.11140E-04	771.996
1.11201E-04	665.474
1.11239E-04	601.766
1.11258E-04	572.791
1.11281E-04	535.393
1.11312E-04	489.176
1.11314E-04	486.484
1.11347E-04	440.836
1.11348E-04	438.446
1.11371E-04	408.873
1.11385E-04	392.086
1.11396E-04	378.821
1.11421E-04	349.803
1.11424E-04	346.225
1.11453E-04	316.344
1.11457E-04	311.899
1.11472E-04	297.875
1.11485E-04	286.25
1.11491E-04	280.511
1.11510E-04	264.231
1.11512E-04	262.767
1.11529E-04	249.037
1.11538E-04	242.732
1.11548E-04	234.83
1.11563E-04	224.465
1.11573E-04	217.959
1.11589E-04	207.791
1.11597E-04	202.567
1.11614E-04	192.659
1.11622E-04	188.547
1.11640E-04	178.946
1.11646E-04	175.794
1.11666E-04	166.535
1.11671E-04	164.202
1.11691E-04	155.309
1.11695E-04	153.678
1.11720E-04	144.131
1.11728E-04	141.133
1.11744E-04	135.448
1.11761E-04	129.918
1.11768E-04	127.751
1.11792E-04	120.734
1.11795E-04	120.036
1.11816E-04	114.349
1.11828E-04	111.393
1.11840E-04	108.488
1.11850E-04	106.174
1.11863E-04	103.151
1.11887E-04	98.2294
1.11894E-04	96.9178
1.11911E-04	93.7271
1.11935E-04	89.5574
1.11938E-04	89.0055
1.11967E-04	84.5308
1.11983E-04	82.2303
1.11999E-04	79.9881
1.12026E-04	76.4297
1.12027E-04	76.2912
1.12053E-04	73.1847
1.12071E-04	71.1829
1.12089E-04	69.2288
1.12117E-04	66.5355
1.12126E-04	65.6628
1.12162E-04	62.4458
1.12185E-04	60.5835
1.12198E-04	59.503
1.12235E-04	56.8287
1.12253E-04	55.5823
1.12271E-04	54.3755
1.12312E-04	51.8501
1.12321E-04	51.33
1.12357E-04	49.3145
1.12389E-04	47.6826
1.12403E-04	47.0036
1.12448E-04	44.9037
1.12459E-04	44.4145
1.12493E-04	42.9912
1.12534E-04	41.3964
1.12539E-04	41.2251
1.12584E-04	39.6225
1.12630E-04	38.1185
1.12634E-04	37.9774
1.12681E-04	36.5865
1.12734E-04	35.0997
1.12737E-04	35.0081
1.12794E-04	33.587
1.12834E-04	32.6574
1.12851E-04	32.2741
1.12908E-04	31.0788
1.12963E-04	29.9787
1.12964E-04	29.9572
1.13021E-04	28.9454
1.13078E-04	27.9915
1.13093E-04	27.7579
1.13144E-04	26.9777
1.13179E-04	26.4753
1.13219E-04	25.9296
1.13294E-04	24.9703
1.13351E-04	24.2764
1.13369E-04	24.0823
1.13443E-04	23.282
1.13518E-04	22.5295
1.13524E-04	22.4757
1.13593E-04	21.8511
1.13668E-04	21.2131
1.13694E-04	21.0031
1.13751E-04	20.5673
1.13842E-04	19.9122
1.13865E-04	19.7581
1.13933E-04	19.319
1.14023E-04	18.768
1.14091E-04	18.3778
1.14114E-04	18.2547
1.14205E-04	17.7895
1.14296E-04	17.3487
1.14319E-04	17.244
1.14387E-04	16.9498
1.14483E-04	16.5546
1.14585E-04	16.1578
1.14659E-04	15.8856
1.14687E-04	15.7885
1.14790E-04	15.4566
1.14943E-04	14.9885
1.15000E-04	14.8267
1.15096E-04	14.5706
1.15249E-04	14.1908
1.15340E-04	13.9783
1.15374E-04	13.9039
1.15499E-04	13.645
1.15624E-04	13.3985
1.15703E-04	13.2502
1.15811E-04	13.0652
1.15998E-04	12.765
1.16186E-04	12.4831
1.16248E-04	12.3938
1.16327E-04	12.2907
1.16486E-04	12.094
1.16645E-04	11.9065
1.16793E-04	11.74
1.16804E-04	11.7284
1.16963E-04	11.5725
1.17201E-04	11.351
1.17411E-04	11.1678
1.17440E-04	11.1446
1.17621E-04	11.0075
1.17826E-04	10.86
1.18029E-04	10.7198
1.18030E-04	10.719
1.18234E-04	10.5969
1.18439E-04	10.4799
1.18643E-04	10.3676
1.18800E-04	10.2849
1.18949E-04	10.2158
1.19259E-04	10.0803
1.19574E-04	9.9495
1.19880E-04	9.82853
1.19889E-04	9.82543
1.20204E-04	9.72298
1.20519E-04	9.62533
1.20835E-04	9.53185
1.21148E-04	9.44235
1.21154E-04	9.44091
1.21474E-04	9.36517
1.21794E-04	9.29233
1.22113E-04	9.2221
1.22429E-04	9.15503
1.22433E-04	9.1543
1.22756E-04	9.09752
1.23188E-04	9.02437
1.23620E-04	8.95417
1.24052E-04	8.88652
1.24156E-04	8.87078
1.24487E-04	8.82976
1.24926E-04	8.77749
1.25364E-04	8.727
1.25802E-04	8.67808
1.26244E-04	8.63023
1.26688E-04	8.58331
1.26790E-04	8.57286
1.27133E-04	8.54454
1.27577E-04	8.50886
1.28025E-04	8.47386
1.28701E-04	8.42253
1.29377E-04	8.37284
1.29485E-04	8.36509
1.30059E-04	8.33231
1.30745E-04	8.29446
1.31431E-04	8.25763
1.32126E-04	8.22124
1.32822E-04	8.18569
1.33165E-04	8.16852
1.33520E-04	8.1549
1.34225E-04	8.12856
1.34930E-04	8.10282
1.35642E-04	8.07738
1.36596E-04	8.04404
1.37556E-04	8.01121
1.38523E-04	7.97882
1.38881E-04	7.96704
1.39497E-04	7.95217
1.40477E-04	7.92895
1.41465E-04	7.90601
1.42459E-04	7.88332
1.43460E-04	7.86084
1.44469E-04	7.83851
1.45484E-04	7.81631
1.46507E-04	7.79422
1.46886E-04	7.78613
1.47537E-04	7.77598
1.48574E-04	7.75998
1.50144E-04	7.73612
1.51729E-04	7.71242
1.53329E-04	7.68881
1.54951E-04	7.66517
1.56589E-04	7.64154
1.58242E-04	7.6179
1.58647E-04	7.61216
1.59911E-04	7.59897
1.61603E-04	7.5815
1.63311E-04	7.56399
1.65615E-04	7.5406
1.67951E-04	7.51709
1.70321E-04	7.49343
1.72724E-04	7.46959
1.75160E-04	7.44557
1.77632E-04	7.42133
1.78714E-04	7.41076
1.80138E-04	7.39994
1.83959E-04	7.37106
1.86554E-04	7.35155
1.90520E-04	7.32188
1.94562E-04	7.29181
1.98698E-04	7.26115
2.02913E-04	7.23004
2.07228E-04	7.19831
2.11623E-04	7.16606
2.16123E-04	7.13315
2.20707E-04	7.09971
2.25400E-04	7.06558
2.29105E-04	7.03869
2.31460E-04	7.02163
2.33976E-04	7.00207
2.37277E-04	6.97645
2.42310E-04	6.9375
2.47462E-04	6.89775
2.52457E-04	6.85937
2.55968E-04	6.83249
2.59480E-04	6.80572
2.62564E-04	6.78232
2.64069E-04	6.76743
2.66853E-04	6.73998
2.69677E-04	6.71226
2.72481E-04	6.68486
2.75312E-04	6.65736
2.77247E-04	6.63866
2.79196E-04	6.61993
2.79657E-04	6.61553
2.81158E-04	6.59643
2.83066E-04	6.57229
2.84919E-04	6.54898
2.86853E-04	6.52481
2.88870E-04	6.49985
2.89618E-04	6.49066
2.89878E-04	6.48638
2.91772E-04	6.45537
2.93194E-04	6.4323
2.94703E-04	6.40803
2.96257E-04	6.38331
2.97810E-04	6.3589
2.98818E-04	6.33749
2.99826E-04	6.31627
3.00834E-04	6.29525
3.01842E-04	6.27445
3.02771E-04	6.25552
3.03700E-04	6.23683
3.04629E-04	6.21249
3.05558E-04	6.18846
3.06487E-04	6.1648
3.07416E-04	6.14154
3.08345E-04	6.11164
3.09274E-04	6.08229
3.10203E-04	6.05355
3.10900E-04	6.03247
3.11132E-04	6.0256
3.11597E-04	6.0073
3.12294E-04	5.98038
3.12990E-04	5.95405
3.13687E-04	5.9284
3.13919E-04	5.92009
3.14384E-04	5.89772
3.15081E-04	5.86505
3.15777E-04	5.83343
3.16474E-04	5.80301
3.16706E-04	5.79332
3.17124E-04	5.76966
3.17752E-04	5.73552
3.18379E-04	5.70292
3.18564E-04	5.6937
3.18797E-04	5.67828
3.19215E-04	5.65142
3.19633E-04	5.62557
3.20051E-04	5.60085
3.20422E-04	5.57994
3.20422E-04	5.57994
3.20794E-04	5.55297
3.21166E-04	5.52726
3.21537E-04	5.50296
3.21746E-04	5.4902
3.21909E-04	5.47678
3.22280E-04	5.44791
3.22652E-04	5.4211
3.23024E-04	5.39664
3.23070E-04	5.39392
3.23407E-04	5.36657
3.23790E-04	5.33873
3.23953E-04	5.32826
3.24046E-04	5.32009
3.24301E-04	5.29954
3.24556E-04	5.28112
3.24812E-04	5.26507
3.24882E-04	5.26142
3.25067E-04	5.24619
3.25381E-04	5.22461
3.25694E-04	5.20823
3.25811E-04	5.20401
3.25904E-04	5.19747
3.26113E-04	5.18575
3.26322E-04	5.17738
3.26531E-04	5.17275
3.26647E-04	5.17252
3.26740E-04	5.16927
3.26925E-04	5.16673
3.27111E-04	5.16838
3.27274E-04	5.17392
3.27297E-04	5.174
3.27483E-04	5.17989
3.27669E-04	5.19171
3.27854E-04	5.21021
3.27878E-04	5.21347
3.28040E-04	5.23073
3.28226E-04	5.25911
3.28365E-04	5.28682
3.28505E-04	5.32072
3.28644E-04	5.36153
3.28667E-04	5.36962
3.28783E-04	5.40786
3.28923E-04	5.46243
3.29062E-04	5.52677
3.29201E-04	5.60219
3.29341E-04	5.69016
3.29498E-04	5.80636
3.29602E-04	5.89536
3.29707E-04	5.99479
3.29759E-04	6.05033
3.29811E-04	6.10878
3.29916E-04	6.2387
3.30020E-04	6.38323
3.30096E-04	6.49952
3.30125E-04	6.54644
3.30223E-04	6.72304
3.30305E-04	6.88345
3.30316E-04	6.90734
3.30409E-04	7.11716
3.30461E-04	7.24709
3.30502E-04	7.35195
3.30592E-04	7.60741
3.30595E-04	7.61599
3.30688E-04	7.91779
3.30723E-04	8.04274
3.30781E-04	8.25888
3.30827E-04	8.44992
3.30874E-04	8.64771
3.30920E-04	8.86528
3.30956E-04	9.04004
3.31013E-04	9.34081
3.31028E-04	9.42383
3.31100E-04	9.85284
3.31106E-04	9.89049
3.31172E-04	10.3349
3.31176E-04	10.3604
3.31244E-04	10.8784
3.31245E-04	10.888
3.31315E-04	11.484
3.31316E-04	11.4943
3.31385E-04	12.1609
3.31388E-04	12.1963
3.31442E-04	12.7901
3.31454E-04	12.9344
3.31496E-04	13.4471
3.31501E-04	13.5086
3.31547E-04	14.1425
3.31552E-04	14.2082
3.31598E-04	14.9188
3.31608E-04	15.0661
3.31640E-04	15.6253
3.31663E-04	16.0384
3.31682E-04	16.3942
3.31705E-04	16.8548
3.31724E-04	17.2481
3.31747E-04	17.7582
3.31766E-04	18.1946
3.31789E-04	18.7615
3.31807E-04	19.2474
3.31831E-04	19.8798
3.31849E-04	20.4227
3.31872E-04	21.1252
3.31877E-04	21.2763
3.31905E-04	22.2089
3.31914E-04	22.5294
3.31933E-04	23.2174
3.31954E-04	24.0155
3.31961E-04	24.2999
3.31988E-04	25.4731
3.31988E-04	25.4732
3.32016E-04	26.7635
3.32023E-04	27.0979
3.32048E-04	28.3443
3.32058E-04	28.8992
3.32079E-04	30.0826
3.32093E-04	30.9026
3.32110E-04	31.9961
3.32128E-04	33.1332
3.32142E-04	34.1044
3.32163E-04	35.6197
3.32173E-04	36.4288
3.32197E-04	38.3931
3.32204E-04	38.9926
3.32225E-04	40.8513
3.32232E-04	41.4882
3.32246E-04	42.8475
3.32267E-04	44.9422
3.32267E-04	44.9422
3.32288E-04	47.2393
3.32302E-04	48.8133
3.32309E-04	49.6482
3.32330E-04	52.2214
3.32331E-04	52.3692
3.32357E-04	55.8635
3.32358E-04	56.0264
3.32381E-04	59.3092
3.32383E-04	59.6561
3.32404E-04	62.836
3.32409E-04	63.7719
3.32426E-04	66.6135
3.32436E-04	68.228
3.32449E-04	70.657
3.32462E-04	73.0485
3.32472E-04	74.9814
3.32488E-04	78.2576
3.32494E-04	79.6032
3.32514E-04	83.8804
3.32517E-04	84.5376
3.32539E-04	89.807
3.32540E-04	89.9459
3.32562E-04	95.4535
3.32566E-04	96.4968
3.32585E-04	101.466
3.32592E-04	103.55
3.32616E-04	110.272
3.32627E-04	113.742
3.32639E-04	117.396
3.32662E-04	124.901
3.32685E-04	132.999
3.32697E-04	137.153
3.32708E-04	141.512
3.32732E-04	150.447
3.32766E-04	164.908
3.32799E-04	179.395
3.32803E-04	181.222
3.32830E-04	194.289
3.32840E-04	199.195
3.32861E-04	210.13
3.32877E-04	218.528
3.32892E-04	226.926
3.32914E-04	239.225
3.32923E-04	244.672
3.32950E-04	261.317
3.32961E-04	268.121
3.32995E-04	289.375
3.32997E-04	291.073
3.33033E-04	315.393
3.33053E-04	329.496
3.33087E-04	353.646
3.33112E-04	372.259
3.33146E-04	398.503
3.33198E-04	439.148
3.33218E-04	455.3
3.33324E-04	540.041
3.33388E-04	589.242
3.33410E-04	606.199
3.33454E-04	638.634
3.33462E-04	643.849
3.33514E-04	678.26
3.33525E-04	685.273
3.33570E-04	710.93
3.33584E-04	718.991
3.33610E-04	731.703
3.33629E-04	740.188
3.33651E-04	749.22
3.33675E-04	757.832
3.33690E-04	762.796
3.33721E-04	771.33
3.33729E-04	773.136
3.33771E-04	780.373
3.33780E-04	781.427
3.33799E-04	782.769
3.33830E-04	783.499
3.33841E-04	783.377
3.33848E-04	782.865
3.33887E-04	778.798
3.33899E-04	776.899
3.33934E-04	769.606
3.33939E-04	768.132
3.33978E-04	756.282
3.33980E-04	755.789
3.34019E-04	740.365
3.34023E-04	738.768
3.34068E-04	717.58
3.34071E-04	715.666
3.34112E-04	692.932
3.34127E-04	684.123
3.34164E-04	660.728
3.34186E-04	645.998
3.34216E-04	625.425
3.34253E-04	598.693
3.34305E-04	560.044
3.34328E-04	543.244
3.34452E-04	448.035
3.34495E-04	416.118
3.34512E-04	403.848
3.34563E-04	367.497
3.34576E-04	358.439
3.34612E-04	334.066
3.34618E-04	329.793
3.34661E-04	302.659
3.34665E-04	300.364
3.34703E-04	277.963
3.34710E-04	273.424
3.34740E-04	256.858
3.34755E-04	249.132
3.34778E-04	237.071
3.34799E-04	226.65
3.34815E-04	218.603
3.34840E-04	206.96
3.34843E-04	205.917
3.34873E-04	192.884
3.34887E-04	187.104
3.34906E-04	179.708
3.34931E-04	169.954
3.34938E-04	167.393
3.34964E-04	158.195
3.34971E-04	156.021
3.34997E-04	147.326
3.35003E-04	145.5
3.35030E-04	137.305
3.35036E-04	135.79
3.35063E-04	128.085
3.35068E-04	126.847
3.35098E-04	119.184
3.35101E-04	118.618
3.35132E-04	111.325
3.35133E-04	111.068
3.35163E-04	104.638
3.35168E-04	103.694
3.35195E-04	98.4914
3.35203E-04	96.9812
3.35226E-04	92.8477
3.35238E-04	90.8768
3.35257E-04	87.6687
3.35272E-04	85.3299
3.35289E-04	82.9353
3.35319E-04	78.6977
3.35320E-04	78.5437
3.35351E-04	74.5867
3.35365E-04	72.9083
3.35383E-04	70.9301
3.35412E-04	67.7856
3.35414E-04	67.548
3.35447E-04	64.3794
3.35458E-04	63.3013
3.35482E-04	61.2673
3.35505E-04	59.3324
3.35516E-04	58.4182
3.35551E-04	55.8086
3.35586E-04	53.4565
3.35598E-04	52.7077
3.35621E-04	51.2907
3.35644E-04	49.9363
3.35656E-04	49.3019
3.35691E-04	47.4827
3.35714E-04	46.3272
3.35737E-04	45.2572
3.35783E-04	43.2312
3.35821E-04	41.7798
3.35850E-04	40.712
3.35864E-04	40.222
3.35893E-04	39.2448
3.35906E-04	38.8122
3.35949E-04	37.5157
3.35979E-04	36.6557
3.36006E-04	35.9222
3.36063E-04	34.4679
3.36064E-04	34.4253
3.36120E-04	33.1739
3.36150E-04	32.5055
3.36177E-04	31.9753
3.36233E-04	30.8685
3.36236E-04	30.8143
3.36300E-04	29.7079
3.36322E-04	29.3296
3.36375E-04	28.5111
3.36451E-04	27.3953
3.36451E-04	27.3871
3.36526E-04	26.4054
3.36552E-04	26.0767
3.36602E-04	25.4966
3.36668E-04	24.7423
3.36677E-04	24.6503
3.36752E-04	23.8839
3.36784E-04	23.5708
3.36828E-04	23.1771
3.36912E-04	22.4436
3.36959E-04	22.0539
3.37005E-04	21.6984
3.37098E-04	21.0149
3.37133E-04	20.7676
3.37191E-04	20.3898
3.37284E-04	19.8064
3.37307E-04	19.6652
3.37377E-04	19.2703
3.37423E-04	19.0154
3.37470E-04	18.7793
3.37562E-04	18.322
3.37655E-04	17.8788
3.37667E-04	17.8285
3.37783E-04	17.3435
3.37888E-04	16.9215
3.37899E-04	16.8787
3.38015E-04	16.4654
3.38120E-04	16.1047
3.38131E-04	16.0686
3.38248E-04	15.718
3.38364E-04	15.3774
3.38439E-04	15.1618
3.38480E-04	15.0572
3.38613E-04	14.7234
3.38700E-04	14.5122
3.38764E-04	14.3722
3.38915E-04	14.0518
3.39049E-04	13.7767
3.39066E-04	13.7445
3.39217E-04	13.4737
3.39368E-04	13.2102
3.39397E-04	13.1608
3.39519E-04	12.9737
3.39670E-04	12.7479
3.39746E-04	12.6378
3.39839E-04	12.5166
3.40024E-04	12.281
3.40210E-04	12.0516
3.40210E-04	12.0516
3.40396E-04	11.8535
3.40582E-04	11.6604
3.40675E-04	11.566
3.40768E-04	11.4818
3.40953E-04	11.3172
3.41139E-04	11.1562
3.41139E-04	11.1562
3.41348E-04	11.0007
3.41580E-04	10.8321
3.41813E-04	10.6674
3.41836E-04	10.6513
3.42045E-04	10.5262
3.42277E-04	10.3903
3.42509E-04	10.2572
3.42533E-04	10.2441
3.42742E-04	10.1436
3.43090E-04	9.98022
3.43369E-04	9.85262
3.43462E-04	9.8109
3.43647E-04	9.73972
3.43926E-04	9.6351
3.44205E-04	9.5324
3.44298E-04	9.49874
3.44484E-04	9.44174
3.44902E-04	9.31633
3.45320E-04	9.1939
3.45552E-04	9.12724
3.45691E-04	9.09397
3.46063E-04	9.00706
3.46434E-04	8.92172
3.46806E-04	8.83779
3.46806E-04	8.83779
3.47178E-04	8.76852
3.47549E-04	8.70036
3.47921E-04	8.6332
3.48199E-04	8.5835
3.48292E-04	8.56949
3.48757E-04	8.50058
3.49221E-04	8.43277
3.49593E-04	8.37931
3.49686E-04	8.36814
3.50150E-04	8.31316
3.50615E-04	8.25895
3.51079E-04	8.20543
3.51544E-04	8.15267
3.51776E-04	8.13097
3.52264E-04	8.08612
3.52775E-04	8.03971
3.53541E-04	7.97105
3.53588E-04	7.96694
3.54308E-04	7.91536
3.55074E-04	7.86129
3.55841E-04	7.80795
3.56468E-04	7.76481
3.56561E-04	7.75979
3.57257E-04	7.72261
3.57954E-04	7.68584
3.58883E-04	7.63737
3.59812E-04	7.58946
3.60184E-04	7.57049
3.60834E-04	7.54545
3.61856E-04	7.50659
3.62878E-04	7.46817
3.63900E-04	7.43011
3.64922E-04	7.39237
3.65758E-04	7.36171
3.65943E-04	7.35658
3.66965E-04	7.32859
3.67987E-04	7.30083
3.69102E-04	7.27076
3.70774E-04	7.22605
3.71703E-04	7.20141
3.72446E-04	7.18643
3.73747E-04	7.16044
3.75048E-04	7.13461
3.76348E-04	7.10895
3.78162E-04	7.07336
3.79702E-04	7.04333
3.81012E-04	7.01791
3.81755E-04	7.00705
3.83775E-04	6.97776
3.85794E-04	6.94862
3.87141E-04	6.92928
3.89186E-04	6.90002
3.91231E-04	6.8709
3.93410E-04	6.83997
3.95590E-04	6.80916
3.98117E-04	6.77865
4.00645E-04	6.74825
4.03187E-04	6.71781
4.05728E-04	6.68748
4.08090E-04	6.65939
4.10452E-04	6.6314
4.12813E-04	6.60351
4.15457E-04	6.57241
4.18804E-04	6.53321
4.20917E-04	6.50861
4.23029E-04	6.48412
4.25142E-04	6.45976
4.27254E-04	6.43554
4.28428E-04	6.42217
4.29367E-04	6.40854
4.31317E-04	6.3804
4.33267E-04	6.35246
4.35108E-04	6.3263
4.36733E-04	6.30341
4.38358E-04	6.28078
4.38467E-04	6.27928
4.39442E-04	6.2614
4.40525E-04	6.24167
4.41608E-04	6.22211
4.42692E-04	6.20273
4.43775E-04	6.18357
4.44858E-04	6.16466
4.44967E-04	6.1628
4.45942E-04	6.14047
4.47025E-04	6.116
4.47837E-04	6.09791
4.48650E-04	6.08007
4.49300E-04	6.06603
4.49463E-04	6.06122
4.50275E-04	6.03749
4.51087E-04	6.01414
4.51900E-04	5.99123
4.52712E-04	5.96884
4.53525E-04	5.94707
4.53633E-04	5.94424
4.54067E-04	5.92776
4.54608E-04	5.90751
4.55150E-04	5.88766
4.55692E-04	5.86826
4.56233E-04	5.84938
4.56883E-04	5.82751
4.56883E-04	5.82751
4.57317E-04	5.80755
4.57750E-04	5.78808
4.58183E-04	5.76916
4.58617E-04	5.75087
4.58942E-04	5.73768
4.59050E-04	5.73156
4.59483E-04	5.70789
4.59862E-04	5.68791
4.60350E-04	5.6634
4.60675E-04	5.64787
4.60892E-04	5.63802
4.61000E-04	5.63093
4.61325E-04	5.61048
4.61650E-04	5.59097
4.61975E-04	5.57252
4.62300E-04	5.55526
4.62408E-04	5.54991
4.62571E-04	5.53845
4.62842E-04	5.5204
4.63112E-04	5.5035
4.63383E-04	5.48791
4.63492E-04	5.48226
4.63654E-04	5.4699
4.63925E-04	5.45095
4.64196E-04	5.43387
4.64467E-04	5.41892
4.64575E-04	5.41381
4.64683E-04	5.40574
4.64900E-04	5.39135
4.65117E-04	5.3789
4.65333E-04	5.36862
4.65388E-04	5.36667
4.65550E-04	5.35595
4.65767E-04	5.34443
4.65983E-04	5.33607
4.66200E-04	5.33129
4.66362E-04	5.32479
4.66525E-04	5.32087
4.66687E-04	5.31981
4.66850E-04	5.32196
4.66904E-04	5.32388
4.67013E-04	5.3236
4.67175E-04	5.32724
4.67337E-04	5.33549
4.67500E-04	5.34896
4.67608E-04	5.36218
4.67683E-04	5.36803
4.67805E-04	5.3824
4.67927E-04	5.40112
4.68048E-04	5.42468
4.68170E-04	5.45367
4.68292E-04	5.48875
4.68414E-04	5.53072
4.68421E-04	5.53347
4.68529E-04	5.57514
4.68638E-04	5.62397
4.68746E-04	5.68062
4.68854E-04	5.74613
4.68963E-04	5.8217
4.69071E-04	5.90877
4.69179E-04	6.00904
4.69233E-04	6.06681
4.69288E-04	6.12791
4.69384E-04	6.25119
4.69468E-04	6.37196
4.69552E-04	6.50676
4.69572E-04	6.54326
4.69636E-04	6.66484
4.69719E-04	6.8438
4.69775E-04	6.97646
4.69803E-04	7.04739
4.69848E-04	7.17051
4.69866E-04	7.22323
4.69929E-04	7.42104
4.69992E-04	7.63741
4.69994E-04	7.64502
4.70046E-04	7.84888
4.70104E-04	8.10074
4.70111E-04	8.13151
4.70176E-04	8.45693
4.70177E-04	8.46445
4.70241E-04	8.83253
4.70250E-04	8.8926
4.70290E-04	9.15327
4.70323E-04	9.39652
4.70338E-04	9.50888
4.70387E-04	9.90707
4.70387E-04	9.90707
4.70436E-04	10.3588
4.70441E-04	10.4134
4.70485E-04	10.869
4.70495E-04	10.9931
4.70533E-04	11.4469
4.70550E-04	11.6574
4.70574E-04	11.9861
4.70590E-04	12.2215
4.70615E-04	12.5878
4.70631E-04	12.8503
4.70655E-04	13.2589
4.70671E-04	13.5518
4.70696E-04	14.0083
4.70712E-04	14.3355
4.70736E-04	14.8458
4.70753E-04	15.2117
4.70777E-04	15.7826
4.70793E-04	16.1917
4.70818E-04	16.8307
4.70834E-04	17.2884
4.70858E-04	18.0034
4.70875E-04	18.5154
4.70899E-04	19.3155
4.70915E-04	19.8879
4.70940E-04	20.7762
4.70942E-04	20.8819
4.70969E-04	21.9671
4.70978E-04	22.3019
4.70996E-04	23.1308
4.71010E-04	23.7395
4.71024E-04	24.3821
4.71042E-04	25.3067
4.71051E-04	25.7248
4.71075E-04	27.0135
4.71078E-04	27.1646
4.71105E-04	28.7154
4.71108E-04	28.8748
4.71132E-04	30.3849
4.71140E-04	30.9021
4.71159E-04	32.1713
4.71173E-04	33.1024
4.71186E-04	34.0807
4.71205E-04	35.4869
4.71213E-04	36.1195
4.71237E-04	38.0734
4.71247E-04	38.8701
4.71270E-04	40.8642
4.71277E-04	41.54
4.71302E-04	43.8773
4.71308E-04	44.4046
4.71332E-04	46.7762
4.71338E-04	47.4844
4.71368E-04	50.6852
4.71369E-04	50.7615
4.71399E-04	54.2853
4.71405E-04	54.9286
4.71430E-04	58.0396
4.71441E-04	59.5062
4.71460E-04	62.0277
4.71478E-04	64.4277
4.71491E-04	66.2553
4.71514E-04	69.7169
4.71531E-04	72.2879
4.71551E-04	75.3556
4.71565E-04	77.7042
4.71588E-04	81.3809
4.71607E-04	84.7306
4.71631E-04	89.0202
4.71648E-04	92.2333
4.71681E-04	98.5232
4.71690E-04	100.186
4.71731E-04	108.597
4.71732E-04	108.71
4.71773E-04	117.504
4.71782E-04	119.587
4.71814E-04	126.793
4.71853E-04	135.873
4.71876E-04	141.356
4.71937E-04	156.592
4.71944E-04	158.231
4.72024E-04	178.874
4.72145E-04	210.573
4.72223E-04	230.374
4.72236E-04	233.614
4.72301E-04	248.983
4.72319E-04	252.963
4.72366E-04	263.118
4.72392E-04	268.44
4.72427E-04	274.896
4.72457E-04	280.247
4.72485E-04	284.71
4.72509E-04	288.218
4.72544E-04	292.711
4.72561E-04	294.719
4.72611E-04	299.58
4.72612E-04	299.666
4.72661E-04	302.804
4.72667E-04	303.071
4.72700E-04	304.196
4.72722E-04	304.53
4.72756E-04	304.53
4.72787E-04	303.933
4.72798E-04	303.614
4.72803E-04	303.42
4.72838E-04	301.502
4.72861E-04	299.887
4.72896E-04	296.848
4.72917E-04	294.749
4.72956E-04	290.095
4.72969E-04	288.368
4.73016E-04	281.309
4.73021E-04	280.612
4.73081E-04	269.861
4.73099E-04	266.586
4.73151E-04	256.024
4.73159E-04	254.174
4.73229E-04	238.602
4.73255E-04	232.546
4.73315E-04	217.971
4.73467E-04	180.69
4.73532E-04	165.045
4.73561E-04	158.34
4.73610E-04	147.035
4.73647E-04	138.886
4.73662E-04	135.602
4.73704E-04	126.766
4.73714E-04	124.772
4.73756E-04	116.43
4.73762E-04	115.4
4.73805E-04	107.36
4.73813E-04	105.916
4.73854E-04	98.8891
4.73865E-04	97.0997
4.73903E-04	91.0221
4.73916E-04	88.9384
4.73935E-04	86.1146
4.73967E-04	81.4373
4.73967E-04	81.4373
4.74000E-04	77.0782
4.74019E-04	74.6331
4.74038E-04	72.2781
4.74070E-04	68.4152
4.74076E-04	67.796
4.74114E-04	63.6563
4.74122E-04	62.8088
4.74152E-04	59.8301
4.74173E-04	57.7636
4.74190E-04	56.2811
4.74228E-04	52.9866
4.74228E-04	52.9865
4.74265E-04	49.9957
4.74282E-04	48.7754
4.74303E-04	47.2269
4.74336E-04	45.016
4.74340E-04	44.7531
4.74376E-04	42.5013
4.74390E-04	41.7066
4.74413E-04	40.4241
4.74444E-04	38.772
4.74450E-04	38.4992
4.74486E-04	36.7471
4.74498E-04	36.1904
4.74523E-04	35.1351
4.74552E-04	33.9063
4.74559E-04	33.6413
4.74596E-04	32.2788
4.74607E-04	31.8935
4.74632E-04	31.0264
4.74661E-04	30.1118
4.74669E-04	29.8639
4.74710E-04	28.6838
4.74715E-04	28.5347
4.74758E-04	27.4182
4.74796E-04	26.4965
4.74807E-04	26.2524
4.74856E-04	25.2161
4.74878E-04	24.7795
4.74905E-04	24.2732
4.74953E-04	23.4091
4.74959E-04	23.3177
4.75002E-04	22.6379
4.75040E-04	22.071
4.75051E-04	21.9207
4.75100E-04	21.276
4.75140E-04	20.7616
4.75148E-04	20.6666
4.75197E-04	20.1204
4.75240E-04	19.655
4.75253E-04	19.5334
4.75312E-04	18.9723
4.75341E-04	18.7064
4.75370E-04	18.4569
4.75429E-04	17.984
4.75488E-04	17.5288
4.75491E-04	17.5087
4.75567E-04	16.9991
4.75641E-04	16.5211
4.75645E-04	16.4972
4.75724E-04	16.0558
4.75792E-04	15.6904
4.75802E-04	15.637
4.75889E-04	15.2275
4.75977E-04	14.8285
4.75984E-04	14.8007
4.76079E-04	14.4276
4.76173E-04	14.0687
4.76180E-04	14.044
4.76268E-04	13.7526
4.76363E-04	13.4497
4.76383E-04	13.3868
4.76458E-04	13.1795
4.76553E-04	12.9242
4.76654E-04	12.6593
4.76661E-04	12.6435
4.76783E-04	12.3694
4.76905E-04	12.1049
4.76925E-04	12.0623
4.77027E-04	11.8704
4.77148E-04	11.6476
4.77196E-04	11.5636
4.77270E-04	11.4464
4.77392E-04	11.2606
4.77514E-04	11.08
4.77602E-04	10.9531
4.77649E-04	10.8933
4.77798E-04	10.7116
4.77947E-04	10.5352
4.78008E-04	10.465
4.78096E-04	10.3756
4.78245E-04	10.2286
4.78394E-04	10.0854
4.78415E-04	10.0663
4.78543E-04	9.96167
4.78767E-04	9.78549
4.78956E-04	9.64062
4.79024E-04	9.59019
4.79146E-04	9.51279
4.79335E-04	9.39565
4.79525E-04	9.28138
4.79633E-04	9.21755
4.79715E-04	9.17699
4.79904E-04	9.08466
4.80094E-04	8.99437
4.80283E-04	8.90592
4.80446E-04	8.83172
4.80527E-04	8.80055
4.80771E-04	8.70946
4.81015E-04	8.62049
4.81258E-04	8.53339
4.81258E-04	8.53339
4.81502E-04	8.4623
4.81746E-04	8.39269
4.81990E-04	8.32442
4.82233E-04	8.25733
4.82342E-04	8.22801
4.82504E-04	8.19164
4.82775E-04	8.13221
4.83046E-04	8.07383
4.83425E-04	7.99373
4.83452E-04	7.98903
4.83858E-04	7.92046
4.84265E-04	7.85346
4.84590E-04	7.80085
4.84942E-04	7.74476
4.84969E-04	7.74134
4.85348E-04	7.69435
4.85727E-04	7.64819
4.86106E-04	7.60275
4.86485E-04	7.55797
4.86865E-04	7.51376
4.86892E-04	7.51065
4.87433E-04	7.46165
4.87921E-04	7.41835
4.88408E-04	7.3757
4.88896E-04	7.33362
4.88950E-04	7.329
4.89383E-04	7.30056
4.89871E-04	7.26901
4.90358E-04	7.23786
4.91090E-04	7.19179
4.91631E-04	7.15811
4.92200E-04	7.1231
4.92227E-04	7.12184
4.92823E-04	7.09454
4.93419E-04	7.06755
4.94015E-04	7.04084
4.94908E-04	7.00125
4.95775E-04	6.9633
4.95802E-04	6.96241
4.96642E-04	6.93528
4.97454E-04	6.90932
4.98267E-04	6.88362
4.99350E-04	6.84969
5.00433E-04	6.8161
5.01300E-04	6.78946
5.01517E-04	6.78451
5.02600E-04	6.76002
5.03683E-04	6.73574
5.04767E-04	6.71165
5.05850E-04	6.68774
5.06933E-04	6.66398
5.07816E-04	6.64474
5.08558E-04	6.63243
5.09726E-04	6.61323
5.10978E-04	6.59279
5.12230E-04	6.57248
5.13482E-04	6.55231
5.15003E-04	6.52799
5.16345E-04	6.50672
5.17431E-04	6.48965
5.17686E-04	6.48657
5.18837E-04	6.47292
5.19699E-04	6.46282
5.20562E-04	6.45288
5.21425E-04	6.44314
5.22000E-04	6.43679
5.22495E-04	6.43144
5.23118E-04	6.4249
5.23533E-04	6.42068
5.23949E-04	6.41661
5.24364E-04	6.41271
5.24779E-04	6.40903
5.25091E-04	6.40646
5.25402E-04	6.40407
5.25730E-04	6.4018
5.25969E-04	6.40033
5.26209E-04	6.39905
5.26449E-04	6.39801
5.26688E-04	6.39724
5.26928E-04	6.3968
5.27108E-04	6.39674
5.27287E-04	6.39695
5.27467E-04	6.39747
5.27607E-04	6.39813
5.27767E-04	6.39922
5.27926E-04	6.40071
5.28046E-04	6.40214
5.28166E-04	6.40388
5.28286E-04	6.40599
5.28406E-04	6.40852
5.28525E-04	6.41155
5.28645E-04	6.41517
5.28765E-04	6.41952
5.28849E-04	6.42307
5.28937E-04	6.42733
5.29025E-04	6.43225
5.29113E-04	6.43795
5.29178E-04	6.44286
5.29244E-04	6.44841
5.29310E-04	6.45472
5.29376E-04	6.46194
5.29442E-04	6.47027
5.29486E-04	6.47656
5.29544E-04	6.4859
5.29598E-04	6.49588
5.29652E-04	6.50732
5.29688E-04	6.5159
5.29724E-04	6.52535
5.29760E-04	6.53577
5.29795E-04	6.54728
5.29827E-04	6.55861
5.29831E-04	6.56016
5.29867E-04	6.57542
5.29903E-04	6.59222
5.29939E-04	6.61075
5.29975E-04	6.63121
5.30011E-04	6.65381
5.30047E-04	6.67881
5.30083E-04	6.70646
5.30119E-04	6.73705
5.30155E-04	6.77089
5.30191E-04	6.80831
5.30227E-04	6.84967
5.30263E-04	6.89534
5.30299E-04	6.94572
5.30335E-04	7.00124
5.30371E-04	7.06231
5.30406E-04	7.12939
5.30442E-04	7.20294
5.30476E-04	7.27784
5.30505E-04	7.34714
5.30533E-04	7.4214
5.30562E-04	7.50084
5.30581E-04	7.5568
5.30620E-04	7.67621
5.30620E-04	7.67622
5.30658E-04	7.80933
5.30696E-04	7.95331
5.30735E-04	8.10857
5.30773E-04	8.27544
5.30805E-04	8.42358
5.30853E-04	8.66145
5.30901E-04	8.91822
5.30949E-04	9.19374
5.30997E-04	9.48749
5.31054E-04	9.86281
5.31105E-04	10.2156
5.31131E-04	10.4016
5.31182E-04	10.7756
5.31291E-04	11.612
5.31448E-04	12.8391
5.31535E-04	13.4817
5.31611E-04	14.0015
5.31673E-04	14.3732
5.31729E-04	14.6716
5.31765E-04	14.8376
5.31765E-04	14.8376
5.31826E-04	15.0686
5.31888E-04	15.2346
5.31946E-04	15.3291
5.31977E-04	15.3461
5.31999E-04	15.3556
5.32045E-04	15.3324
5.32102E-04	15.2469
5.32164E-04	15.0886
5.32225E-04	14.8647
5.32291E-04	14.5547
5.32337E-04	14.2996
5.32350E-04	14.2276
5.32419E-04	13.7864
5.32500E-04	13.2161
5.32595E-04	12.4863
5.32776E-04	11.0709
5.32844E-04	10.5645
5.32895E-04	10.1936
5.32958E-04	9.75253
5.33010E-04	9.42022
5.33064E-04	9.08895
5.33112E-04	8.8162
5.33125E-04	8.74847
5.33160E-04	8.56509
5.33208E-04	8.33386
5.33240E-04	8.19009
5.33272E-04	8.05448
5.33304E-04	7.92688
5.33344E-04	7.77832
5.33374E-04	7.67462
5.33403E-04	7.57731
5.33433E-04	7.48613
5.33463E-04	7.40086
5.33493E-04	7.32123
5.33523E-04	7.24697
5.33553E-04	7.17782
5.33583E-04	7.11351
5.33613E-04	7.05377
5.33649E-04	6.98703
5.33661E-04	6.96672
5.33676E-04	6.94327
5.33702E-04	6.9032
5.33729E-04	6.86588
5.33755E-04	6.83114
5.33781E-04	6.79882
5.33808E-04	6.76877
5.33834E-04	6.74084
5.33860E-04	6.71489
5.33887E-04	6.69078
5.33913E-04	6.6684
5.33939E-04	6.64761
5.33979E-04	6.61917
5.34018E-04	6.59371
5.34045E-04	6.57823
5.34081E-04	6.55885
5.34117E-04	6.54129
5.34153E-04	6.52535
5.34189E-04	6.51087
5.34225E-04	6.49767
5.34260E-04	6.48563
5.34296E-04	6.47463
5.34332E-04	6.46454
5.34386E-04	6.4509
5.34440E-04	6.43882
5.34494E-04	6.42805
5.34548E-04	6.41837
5.34602E-04	6.40963
5.34672E-04	6.39947
5.34724E-04	6.39263
5.34802E-04	6.38333
5.34880E-04	6.37497
5.34957E-04	6.3674
5.35035E-04	6.36048
5.35113E-04	6.35411
5.35191E-04	6.34821
5.35295E-04	6.34095
5.35399E-04	6.33429
5.35491E-04	6.32883
5.35515E-04	6.3275
5.35610E-04	6.32292
5.35730E-04	6.31768
5.35850E-04	6.31286
5.35970E-04	6.30839
5.36090E-04	6.30424
5.36249E-04	6.2991
5.36409E-04	6.29437
5.36569E-04	6.28998
5.36729E-04	6.28588
5.36932E-04	6.281
5.37136E-04	6.27646
5.37340E-04	6.2722
5.37543E-04	6.26817
5.37815E-04	6.26311
5.38086E-04	6.25833
5.38358E-04	6.2538
5.38630E-04	6.24947
5.38901E-04	6.24531
5.39261E-04	6.24001
5.39620E-04	6.23492
5.39860E-04	6.23162
5.40339E-04	6.22521
5.40818E-04	6.21899
5.41297E-04	6.21294
5.41777E-04	6.20702
5.42496E-04	6.19833
5.43055E-04	6.19171
5.43694E-04	6.18424
5.44652E-04	6.17321
5.45611E-04	6.16233
5.46569E-04	6.15158
5.47847E-04	6.13738
5.49253E-04	6.12189
5.50659E-04	6.10651
5.52768E-04	6.08358
5.54748E-04	6.06217
5.56026E-04	6.0484
5.59094E-04	6.01548
5.62161E-04	5.9827
5.64742E-04	5.9552
5.67324E-04	5.92778
5.70598E-04	5.89312
5.73872E-04	5.85857
5.76499E-04	5.83096
5.77812E-04	5.81457
5.80770E-04	5.77778
5.84059E-04	5.73704
5.87094E-04	5.69962
5.89877E-04	5.66553
5.91901E-04	5.6409
5.93798E-04	5.61798
5.95695E-04	5.59047
5.96960E-04	5.5723
5.98225E-04	5.55436
5.99174E-04	5.54108
6.00122E-04	5.52803
6.00755E-04	5.5195
6.01387E-04	5.51113
6.02051E-04	5.50258
6.02715E-04	5.49436
6.03158E-04	5.48911
6.03601E-04	5.48411
6.04043E-04	5.47941
6.04375E-04	5.47615
6.04707E-04	5.47317
6.05047E-04	5.47047
6.05284E-04	5.46885
6.05522E-04	5.46749
6.05759E-04	5.46645
6.05996E-04	5.46579
6.06233E-04	5.46561
6.06411E-04	5.46584
6.06589E-04	5.46647
6.06767E-04	5.46757
6.06905E-04	5.46881
6.07063E-04	5.47073
6.07221E-04	5.47329
6.07340E-04	5.47571
6.07458E-04	5.47866
6.07577E-04	5.48224
6.07696E-04	5.48657
6.07775E-04	5.48997
6.07854E-04	5.49386
6.07933E-04	5.49833
6.08012E-04	5.50349
6.08091E-04	5.50949
6.08170E-04	5.51652
6.08229E-04	5.52261
6.08288E-04	5.52955
6.08348E-04	5.53748
6.08407E-04	5.54662
6.08466E-04	5.55719
6.08506E-04	5.56517
6.08545E-04	5.57401
6.08585E-04	5.58382
6.08624E-04	5.59473
6.08664E-04	5.60687
6.08703E-04	5.62042
6.08739E-04	5.63394
6.08771E-04	5.64715
6.08802E-04	5.66158
6.08834E-04	5.67736
6.08866E-04	5.69462
6.08897E-04	5.71348
6.08929E-04	5.73411
6.08960E-04	5.75665
6.08992E-04	5.78128
6.09024E-04	5.80818
6.09040E-04	5.82286
6.09055E-04	5.83778
6.09087E-04	5.87028
6.09119E-04	5.90565
6.09150E-04	5.94413
6.09182E-04	5.98594
6.09213E-04	6.03132
6.09242E-04	6.07544
6.09280E-04	6.1394
6.09318E-04	6.20966
6.09356E-04	6.28669
6.09356E-04	6.2867
6.09394E-04	6.37225
6.09432E-04	6.46551
6.09470E-04	6.56695
6.09507E-04	6.677
6.09545E-04	6.79609
6.09583E-04	6.92464
6.09621E-04	7.063
6.09651E-04	7.17971
6.09686E-04	7.32296
6.09721E-04	7.47508
6.09756E-04	7.63618
6.09808E-04	7.8948
6.09860E-04	8.17371
6.09912E-04	8.47248
6.09969E-04	8.82013
6.10026E-04	9.18881
6.10039E-04	9.27491
6.10083E-04	9.57732
6.10162E-04	10.1428
6.10423E-04	12.0866
6.10517E-04	12.7416
6.10598E-04	13.257
6.10666E-04	13.6414
6.10727E-04	13.9361
6.10777E-04	14.1433
6.10828E-04	14.3084
6.10838E-04	14.3409
6.10899E-04	14.4769
6.10918E-04	14.5007
6.10956E-04	14.5461
6.11000E-04	14.5605
6.11048E-04	14.5376
6.11111E-04	14.447
6.11172E-04	14.2973
6.11233E-04	14.0892
6.11286E-04	13.8627
6.11344E-04	13.5717
6.11385E-04	13.3399
6.11410E-04	13.1939
6.11486E-04	12.704
6.11577E-04	12.0624
6.11835E-04	10.1343
6.11911E-04	9.5881
6.11977E-04	9.13247
6.12040E-04	8.7224
6.12088E-04	8.432
6.12135E-04	8.15733
6.12183E-04	7.89902
6.12214E-04	7.73607
6.12259E-04	7.52046
6.12265E-04	7.49174
6.12303E-04	7.32127
6.12347E-04	7.13677
6.12391E-04	6.96632
6.12425E-04	6.84743
6.12458E-04	6.73598
6.12491E-04	6.63172
6.12524E-04	6.53437
6.12557E-04	6.44365
6.12597E-04	6.34388
6.12625E-04	6.27731
6.12654E-04	6.21494
6.12682E-04	6.15655
6.12711E-04	6.10196
6.12739E-04	6.05096
6.12768E-04	6.00337
6.12796E-04	5.959
6.12825E-04	5.91765
6.12853E-04	5.87916
6.12881E-04	5.84333
6.12910E-04	5.81002
6.12938E-04	5.77904
6.12960E-04	5.75665
6.12967E-04	5.75042
6.12995E-04	5.72443
6.13024E-04	5.70033
6.13063E-04	5.66975
6.13103E-04	5.64224
6.13142E-04	5.61747
6.13182E-04	5.59517
6.13221E-04	5.57507
6.13261E-04	5.55693
6.13300E-04	5.54055
6.13340E-04	5.52572
6.13380E-04	5.51227
6.13419E-04	5.50005
6.13459E-04	5.48891
6.13498E-04	5.47874
6.13557E-04	5.46505
6.13617E-04	5.45296
6.13656E-04	5.44566
6.13719E-04	5.43506
6.13783E-04	5.42557
6.13846E-04	5.41702
6.13909E-04	5.40926
6.13972E-04	5.40215
6.14067E-04	5.39252
6.14162E-04	5.38389
6.14257E-04	5.37607
6.14352E-04	5.36892
6.14478E-04	5.36023
6.14605E-04	5.35234
6.14719E-04	5.34575
6.14874E-04	5.33758
6.15028E-04	5.33007
6.15182E-04	5.32311
6.15285E-04	5.31873
6.15490E-04	5.31048
6.15696E-04	5.30282
6.15901E-04	5.29562
6.16107E-04	5.28882
6.16312E-04	5.28234
6.16621E-04	5.27312
6.16929E-04	5.26438
6.17237E-04	5.25603
6.17546E-04	5.24799
6.17957E-04	5.23765
6.18368E-04	5.22767
6.18984E-04	5.2132
6.19601E-04	5.19917
6.20313E-04	5.1834
6.21024E-04	5.16797
6.21498E-04	5.15783
6.22450E-04	5.13777
6.23401E-04	5.118
6.23504E-04	5.11588
6.24669E-04	5.08796
6.25938E-04	5.05789
6.27339E-04	5.02496
6.28873E-04	4.98922
6.29640E-04	4.9715
6.30407E-04	4.95085
6.31941E-04	4.90984
6.33475E-04	4.86913
6.35009E-04	4.82873
6.35776E-04	4.8087
6.36543E-04	4.7849
6.38077E-04	4.73767
6.39611E-04	4.69084
6.41145E-04	4.64445
6.41912E-04	4.6215
6.42679E-04	4.5944
6.44213E-04	4.54076
6.45651E-04	4.49104
6.46514E-04	4.46156
6.46993E-04	4.4426
6.48336E-04	4.39009
6.49678E-04	4.33824
6.50732E-04	4.29813
6.51020E-04	4.28544
6.52362E-04	4.22714
6.53705E-04	4.16986
6.54759E-04	4.12578
6.55047E-04	4.11182
6.56054E-04	4.06385
6.57060E-04	4.01673
6.58067E-04	3.97058
6.58786E-04	3.93839
6.59074E-04	3.92347
6.60080E-04	3.8725
6.61087E-04	3.82293
6.62094E-04	3.77494
6.62813E-04	3.74198
6.63100E-04	3.72714
6.64107E-04	3.67732
6.65114E-04	3.62994
6.65785E-04	3.59991
6.66456E-04	3.57127
6.67319E-04	3.53678
6.68182E-04	3.50528
6.69045E-04	3.47722
6.69524E-04	3.46345
6.69620E-04	3.46134
6.70195E-04	3.45061
6.70770E-04	3.44208
6.71442E-04	3.43547
6.71489E-04	3.43561
6.72137E-04	3.44134
6.72784E-04	3.45126
6.72880E-04	3.45344
6.73431E-04	3.47439
6.73766E-04	3.49002
6.74078E-04	3.50968
6.74581E-04	3.54636
6.74701E-04	3.55694
6.74989E-04	3.58542
6.75277E-04	3.61865
6.75618E-04	3.66218
6.75852E-04	3.69773
6.76235E-04	3.76041
6.76247E-04	3.7625
6.76619E-04	3.83861
6.76876E-04	3.89433
6.77002E-04	3.92559
6.77296E-04	4.00225
6.77386E-04	4.02851
6.77715E-04	4.12924
6.77733E-04	4.13539
6.78135E-04	4.27956
6.78201E-04	4.30588
6.78500E-04	4.4321
6.78668E-04	4.5095
6.78812E-04	4.57886
6.78980E-04	4.66685
6.79123E-04	4.74499
6.79291E-04	4.84422
6.79435E-04	4.9323
6.79603E-04	5.04431
6.79747E-04	5.14371
6.79914E-04	5.27029
6.80058E-04	5.38311
6.80305E-04	5.59473
6.80370E-04	5.65256
6.80657E-04	5.93361
6.80681E-04	5.95798
6.80945E-04	6.24934
6.81010E-04	6.32624
6.81161E-04	6.51255
6.81362E-04	6.77782
6.81377E-04	6.79752
6.81592E-04	7.11316
6.81715E-04	7.30469
6.81808E-04	7.45669
6.82024E-04	7.8324
6.82045E-04	7.87275
6.82239E-04	8.24803
6.82333E-04	8.44226
6.82455E-04	8.70436
6.82621E-04	9.08444
6.82649E-04	9.15273
6.82822E-04	9.58893
6.82908E-04	9.82079
6.82994E-04	10.0602
6.83167E-04	10.5695
6.83196E-04	10.66
6.83340E-04	11.127
6.83483E-04	11.6251
6.83512E-04	11.7275
6.83675E-04	12.3469
6.83685E-04	12.3841
6.83857E-04	13.1011
6.83867E-04	13.1436
6.84011E-04	13.7955
6.84059E-04	14.0291
6.84212E-04	14.7935
6.84250E-04	15.0014
6.84413E-04	15.9052
6.84442E-04	16.0765
6.84548E-04	16.7193
6.84634E-04	17.277
6.84682E-04	17.5944
6.84816E-04	18.5372
6.84826E-04	18.6088
6.84950E-04	19.562
6.85017E-04	20.1071
6.85075E-04	20.5868
6.85233E-04	22.002
6.85247E-04	22.1338
6.85363E-04	23.2633
6.85377E-04	23.4129
6.85478E-04	24.4797
6.85521E-04	24.9644
6.85593E-04	25.7882
6.85665E-04	26.6625
6.85708E-04	27.1978
6.85808E-04	28.5247
6.85823E-04	28.7183
6.85938E-04	30.3654
6.85952E-04	30.5843
6.86043E-04	31.9995
6.86096E-04	32.8693
6.86149E-04	33.7595
6.86254E-04	35.6516
6.86264E-04	35.8348
6.86360E-04	37.7095
6.86408E-04	38.709
6.86465E-04	39.9355
6.86551E-04	41.8997
6.86571E-04	42.3466
6.86676E-04	44.9738
6.86695E-04	45.4859
6.86781E-04	47.8442
6.86839E-04	49.5205
6.86867E-04	50.3509
6.86952E-04	53.0522
6.86984E-04	54.1162
6.87037E-04	55.9595
6.87082E-04	57.5696
6.87123E-04	59.1012
6.87179E-04	61.339
6.87208E-04	62.4975
6.87277E-04	65.4624
6.87293E-04	66.1755
6.87375E-04	69.9835
6.87379E-04	70.1661
6.87464E-04	74.513
6.87473E-04	74.9823
6.87538E-04	78.5938
6.87571E-04	80.5146
6.87612E-04	82.9912
6.87668E-04	86.6099
6.87686E-04	87.7354
6.87758E-04	92.7346
6.87759E-04	92.8703
6.87833E-04	98.4488
6.87838E-04	98.8364
6.87907E-04	104.511
6.87919E-04	105.524
6.87981E-04	111.106
6.87999E-04	112.856
6.88055E-04	118.292
6.88080E-04	120.903
6.88124E-04	125.605
6.88160E-04	129.762
6.88193E-04	133.548
6.88241E-04	139.513
6.88262E-04	142.186
6.88321E-04	150.26
6.88331E-04	151.586
6.88396E-04	161.256
6.88400E-04	161.835
6.88465E-04	172.389
6.88469E-04	173.02
6.88534E-04	184.538
6.88538E-04	185.227
6.88603E-04	197.8
6.88607E-04	198.551
6.88668E-04	211.416
6.88672E-04	212.274
6.88730E-04	225.332
6.88741E-04	228.117
6.88791E-04	240.365
6.88810E-04	245.384
6.88852E-04	256.592
6.88879E-04	264.186
6.88914E-04	274.091
6.88944E-04	283.456
6.88975E-04	292.947
6.89006E-04	303.032
6.89037E-04	313.244
6.89067E-04	324.082
6.89098E-04	335.052
6.89129E-04	346.784
6.89178E-04	366.129
6.89221E-04	383.74
6.89259E-04	400.019
6.89313E-04	424.451
6.89339E-04	436.859
6.89405E-04	469.028
6.89420E-04	476.711
6.89500E-04	519.574
6.89504E-04	521.725
6.89570E-04	558.777
6.89604E-04	579.369
6.89654E-04	609.452
6.89704E-04	640.979
6.89738E-04	663.036
6.89842E-04	732.44
6.89865E-04	747.991
6.90057E-04	883.682
6.90195E-04	982.139
6.90256E-04	1025.53
6.90321E-04	1069.65
6.90383E-04	1110.55
6.90448E-04	1150.76
6.90509E-04	1187.82
6.90544E-04	1206.62
6.90597E-04	1235.13
6.90640E-04	1254.99
6.90686E-04	1275.93
6.90735E-04	1295.16
6.90774E-04	1309.28
6.90831E-04	1326.06
6.90862E-04	1334.45
6.90916E-04	1345.2
6.90933E-04	1348.28
6.91000E-04	1355.5
6.91019E-04	1357.18
6.91075E-04	1358.28
6.91081E-04	1357.98
6.91148E-04	1353.53
6.91163E-04	1352.28
6.91228E-04	1341.2
6.91259E-04	1335.43
6.91309E-04	1322.13
6.91347E-04	1311.25
6.91389E-04	1296.25
6.91430E-04	1281.03
6.91476E-04	1261.56
6.91514E-04	1244.51
6.91568E-04	1217.24
6.91625E-04	1187.31
6.91706E-04	1140.74
6.91736E-04	1122.69
6.91844E-04	1054.7
6.91874E-04	1035.15
6.92166E-04	841.514
6.92212E-04	811.226
6.92304E-04	752.514
6.92319E-04	742.83
6.92396E-04	696.332
6.92427E-04	677.926
6.92488E-04	642.996
6.92534E-04	617.126
6.92588E-04	588.647
6.92626E-04	568.57
6.92668E-04	547.786
6.92718E-04	523.535
6.92749E-04	509.57
6.92810E-04	482.017
6.92829E-04	473.999
6.92902E-04	443.967
6.92910E-04	441.035
6.92963E-04	420.768
6.92994E-04	409.317
6.93033E-04	395.96
6.93063E-04	385.414
6.93102E-04	373.052
6.93140E-04	360.855
6.93171E-04	351.748
6.93217E-04	338.273
6.93240E-04	331.992
6.93293E-04	317.536
6.93309E-04	313.688
6.93370E-04	298.509
6.93378E-04	296.742
6.93447E-04	281.06
6.93447E-04	281.06
6.93516E-04	266.657
6.93523E-04	265.079
6.93596E-04	251.129
6.93600E-04	250.406
6.93677E-04	236.996
6.93686E-04	235.345
6.93757E-04	224.105
6.93782E-04	220.213
6.93838E-04	212.253
6.93878E-04	206.571
6.93918E-04	201.352
6.93974E-04	194.247
6.93999E-04	191.315
6.94070E-04	183.087
6.94080E-04	182.061
6.94160E-04	173.564
6.94166E-04	172.966
6.94262E-04	163.755
6.94264E-04	163.585
6.94358E-04	155.36
6.94367E-04	154.586
6.94471E-04	146.358
6.94471E-04	146.358
6.94574E-04	138.96
6.94601E-04	137.069
6.94678E-04	132.152
6.94731E-04	128.759
6.94781E-04	125.88
6.94862E-04	121.293
6.94885E-04	120.092
6.94988E-04	114.756
6.94992E-04	114.561
6.95123E-04	108.471
6.95123E-04	108.471
6.95253E-04	102.94
6.95257E-04	102.789
6.95383E-04	97.8974
6.95391E-04	97.6245
6.95525E-04	92.9207
6.95544E-04	92.2576
6.95660E-04	88.6492
6.95736E-04	86.2752
6.95794E-04	84.6658
6.95928E-04	80.9596
6.95928E-04	80.9596
6.96062E-04	77.6365
6.96120E-04	76.23
6.96216E-04	74.0936
6.96311E-04	71.985
6.96369E-04	70.8274
6.96503E-04	68.1608
6.96522E-04	67.8109
6.96676E-04	65.0469
6.96695E-04	64.7053
6.96829E-04	62.5039
6.96887E-04	61.5708
6.96983E-04	60.1346
6.97078E-04	58.714
6.97136E-04	57.9386
6.97289E-04	55.8933
6.97366E-04	54.8819
6.97481E-04	53.5222
6.97654E-04	51.5078
6.97673E-04	51.306
6.97865E-04	49.313
6.97941E-04	48.5246
6.98056E-04	47.4542
6.98229E-04	45.8663
6.98248E-04	45.7058
6.98440E-04	44.1187
6.98517E-04	43.4902
6.98632E-04	42.6285
6.98795E-04	41.42
6.98823E-04	41.224
6.99063E-04	39.6089
6.99073E-04	39.545
6.99303E-04	38.1594
6.99490E-04	37.0458
6.99542E-04	36.7659
6.99782E-04	35.5079
6.99907E-04	34.8602
7.00022E-04	34.3245
7.00262E-04	33.2197
7.00324E-04	32.9356
7.00621E-04	31.7161
7.00741E-04	31.2302
7.00899E-04	30.6497
7.01153E-04	29.7275
7.01215E-04	29.5217
7.01532E-04	28.4887
7.01565E-04	28.3803
7.01848E-04	27.5458
7.01978E-04	27.1676
7.02165E-04	26.677
7.02481E-04	25.855
7.02596E-04	25.5587
7.02797E-04	25.1002
7.03114E-04	24.3863
7.03214E-04	24.1612
7.03464E-04	23.665
7.03833E-04	22.9375
7.03847E-04	22.9122
7.04231E-04	22.2458
7.04518E-04	21.7505
7.04614E-04	21.6038
7.04998E-04	21.0226
7.05237E-04	20.6624
7.05381E-04	20.4698
7.05765E-04	19.9604
7.05956E-04	19.7082
7.06340E-04	19.256
7.06676E-04	18.8643
7.06819E-04	18.7131
7.07299E-04	18.2134
7.07395E-04	18.1142
7.07778E-04	17.7608
7.08257E-04	17.3226
7.08353E-04	17.2357
7.08737E-04	16.9285
7.09216E-04	16.5475
7.09312E-04	16.4719
7.09696E-04	16.2028
7.10175E-04	15.8688
7.10271E-04	15.8025
7.10750E-04	15.5061
7.11230E-04	15.212
7.11325E-04	15.1596
7.11901E-04	14.8478
7.12380E-04	14.5898
7.12476E-04	14.5443
7.13051E-04	14.2735
7.13722E-04	13.96
7.13914E-04	13.8813
7.14777E-04	13.5307
7.15065E-04	13.4147
7.15448E-04	13.2779
7.16119E-04	13.0401
7.16407E-04	12.9388
7.16790E-04	12.8217
7.17797E-04	12.5167
7.18420E-04	12.3294
7.18804E-04	12.2312
7.19810E-04	11.9756
7.20434E-04	11.8185
7.20817E-04	11.7352
7.21824E-04	11.518
7.22447E-04	11.3845
7.22831E-04	11.3144
7.23837E-04	11.1316
7.24844E-04	10.95
7.25132E-04	10.8983
7.25851E-04	10.7894
7.26857E-04	10.6377
7.27816E-04	10.4939
7.27864E-04	10.4878
7.28871E-04	10.3606
7.30213E-04	10.1918
7.30884E-04	10.1079
7.31651E-04	10.0267
7.32418E-04	9.94583
7.33952E-04	9.78483
7.33952E-04	9.78483
7.35486E-04	9.64671
7.37020E-04	9.50933
7.37020E-04	9.50933
7.38554E-04	9.39413
7.40088E-04	9.2795
7.41622E-04	9.16538
7.43156E-04	9.07124
7.44690E-04	8.9775
7.46224E-04	8.8841
7.46224E-04	8.8841
7.47758E-04	8.80762
7.49292E-04	8.73142
7.51593E-04	8.61757
7.52360E-04	8.57979
7.53894E-04	8.51805
7.56195E-04	8.42587
7.58496E-04	8.33405
7.58496E-04	8.33405
7.60797E-04	8.25771
7.63098E-04	8.18164
7.64632E-04	8.13109
7.65399E-04	8.11039
7.67700E-04	8.0485
7.70001E-04	7.9868
7.72302E-04	7.92526
7.73836E-04	7.88433
7.73836E-04	7.88433
7.76904E-04	7.81831
7.79972E-04	7.7525
7.83040E-04	7.68687
7.86108E-04	7.63399
7.89176E-04	7.58125
7.92244E-04	7.52863
7.95312E-04	7.47612
7.98380E-04	7.43494
8.01448E-04	7.39385
8.04516E-04	7.35284
8.09118E-04	7.29144
8.11419E-04	7.26081
8.12953E-04	7.245
8.15254E-04	7.22131
8.19856E-04	7.17403
8.24458E-04	7.12683
8.29060E-04	7.07972
8.32128E-04	7.04837
8.33662E-04	7.0362
8.38264E-04	6.99976
8.44400E-04	6.95125
8.50536E-04	6.90283
8.56672E-04	6.85449
8.62424E-04	6.81899
8.68177E-04	6.78354
8.72012E-04	6.75993
8.78148E-04	6.72219
8.84284E-04	6.6845
8.88963E-04	6.6558
8.91302E-04	6.64452
8.95981E-04	6.62199
9.00659E-04	6.5995
9.04531E-04	6.58091
9.09126E-04	6.55889
9.11149E-04	6.54922
9.14438E-04	6.53353
9.16904E-04	6.52181
9.19371E-04	6.51014
9.21015E-04	6.5024
9.22660E-04	6.49472
9.23893E-04	6.489
9.25063E-04	6.48362
9.26201E-04	6.47844
9.26960E-04	6.47503
9.27719E-04	6.47167
9.28478E-04	6.46836
9.29047E-04	6.46592
9.29616E-04	6.46353
9.30185E-04	6.46119
9.30755E-04	6.45892
9.31134E-04	6.45746
9.31514E-04	6.45604
9.31893E-04	6.45468
9.32272E-04	6.45338
9.32652E-04	6.45216
9.33031E-04	6.45102
9.33316E-04	6.45025
9.33545E-04	6.44967
9.33814E-04	6.44907
9.34083E-04	6.44856
9.34352E-04	6.44814
9.34620E-04	6.44785
9.34822E-04	6.44773
9.34929E-04	6.44771
9.35024E-04	6.44781
9.35225E-04	6.44812
9.35427E-04	6.44857
9.35640E-04	6.4492
9.35798E-04	6.4498
9.35956E-04	6.45053
9.36115E-04	6.45141
9.36273E-04	6.45246
9.36431E-04	6.45372
9.36549E-04	6.45483
9.36668E-04	6.4561
9.36786E-04	6.45755
9.36885E-04	6.45893
9.37004E-04	6.46082
9.37093E-04	6.46244
9.37182E-04	6.46426
9.37271E-04	6.46633
9.37360E-04	6.46869
9.37449E-04	6.47141
9.37537E-04	6.47456
9.37597E-04	6.47695
9.37656E-04	6.47961
9.37715E-04	6.4826
9.37775E-04	6.48595
9.37834E-04	6.48974
9.37893E-04	6.49404
9.37953E-04	6.49893
9.38012E-04	6.5045
9.38051E-04	6.50866
9.38091E-04	6.51321
9.38130E-04	6.51821
9.38170E-04	6.52369
9.38209E-04	6.5297
9.38249E-04	6.53631
9.38288E-04	6.54358
9.38328E-04	6.55156
9.38368E-04	6.56034
9.38407E-04	6.56999
9.38443E-04	6.57949
9.38478E-04	6.58983
9.38514E-04	6.60107
9.38549E-04	6.6133
9.38585E-04	6.62659
9.38597E-04	6.63141
9.38620E-04	6.64149
9.38656E-04	6.65785
9.38692E-04	6.67553
9.38727E-04	6.69463
9.38763E-04	6.71524
9.38798E-04	6.73747
9.38834E-04	6.76143
9.38869E-04	6.78721
9.38905E-04	6.81493
9.38941E-04	6.84471
9.38976E-04	6.87665
9.39015E-04	6.91444
9.39055E-04	6.95513
9.39094E-04	6.99889
9.39133E-04	7.04587
9.39172E-04	7.0962
9.39211E-04	7.15003
9.39250E-04	7.20749
9.39289E-04	7.26869
9.39341E-04	7.3563
9.39394E-04	7.45098
9.39453E-04	7.56735
9.39512E-04	7.6932
9.39572E-04	7.82856
9.39631E-04	7.97329
9.39690E-04	8.12715
9.39757E-04	8.31199
9.39836E-04	8.5425
9.39931E-04	8.83496
9.39988E-04	9.01921
9.40064E-04	9.26555
9.40254E-04	9.89187
9.40376E-04	10.2785
9.40479E-04	10.575
9.40559E-04	10.7819
9.40631E-04	10.9468
9.40712E-04	11.103
9.40777E-04	11.2047
9.40838E-04	11.277
9.40899E-04	11.3274
9.40941E-04	11.3471
9.40956E-04	11.3535
9.41000E-04	11.3581
9.41080E-04	11.3355
9.41142E-04	11.291
9.41202E-04	11.2251
9.41268E-04	11.1299
9.41344E-04	10.9913
9.41410E-04	10.8485
9.41486E-04	10.6606
9.41577E-04	10.4077
9.41683E-04	10.0839
9.41847E-04	9.54787
9.42021E-04	8.97489
9.42037E-04	8.92471
9.42107E-04	8.70418
9.42202E-04	8.41782
9.42278E-04	8.20225
9.42334E-04	8.0495
9.42391E-04	7.90493
9.42448E-04	7.76886
9.42490E-04	7.67424
9.42536E-04	7.57612
9.42582E-04	7.48367
9.42628E-04	7.39683
9.42674E-04	7.31552
9.42719E-04	7.2396
9.42765E-04	7.16893
9.42811E-04	7.10332
9.42848E-04	7.05424
9.42889E-04	7.00245
9.42931E-04	6.95433
9.42972E-04	6.90972
9.43014E-04	6.86842
9.43055E-04	6.83027
9.43097E-04	6.79508
9.43138E-04	6.76267
9.43180E-04	6.73286
9.43221E-04	6.70548
9.43263E-04	6.68036
9.43277E-04	6.67261
9.43295E-04	6.66302
9.43330E-04	6.64522
9.43366E-04	6.62877
9.43401E-04	6.61358
9.43437E-04	6.59957
9.43472E-04	6.58665
9.43508E-04	6.57475
9.43544E-04	6.56378
9.43579E-04	6.55367
9.43615E-04	6.54436
9.43650E-04	6.53579
9.43686E-04	6.5279
9.43721E-04	6.52063
9.43757E-04	6.51392
9.43793E-04	6.50774
9.43828E-04	6.50204
9.43872E-04	6.49566
9.43923E-04	6.48888
9.43974E-04	6.48281
9.44026E-04	6.47737
9.44077E-04	6.47248
9.44129E-04	6.46807
9.44180E-04	6.46409
9.44231E-04	6.46047
9.44283E-04	6.45717
9.44334E-04	6.45415
9.44411E-04	6.45008
9.44488E-04	6.44647
9.44565E-04	6.44324
9.44642E-04	6.44033
9.44739E-04	6.43704
9.44846E-04	6.4338
9.44953E-04	6.4309
9.45059E-04	6.42828
9.45166E-04	6.42588
9.45273E-04	6.42368
9.45380E-04	6.42164
9.45522E-04	6.41914
9.45664E-04	6.41686
9.45806E-04	6.41475
9.45949E-04	6.4128
9.46091E-04	6.41098
9.46281E-04	6.40874
9.46471E-04	6.40666
9.46660E-04	6.40474
9.46850E-04	6.40294
9.47040E-04	6.40124
9.47229E-04	6.39965
9.47482E-04	6.39764
9.47720E-04	6.39587
9.47957E-04	6.39419
9.48194E-04	6.39258
9.48431E-04	6.39105
9.48747E-04	6.38909
9.49063E-04	6.38723
9.49380E-04	6.38543
9.49696E-04	6.3837
9.50123E-04	6.38145
9.50526E-04	6.3794
9.50929E-04	6.3774
9.51467E-04	6.37482
9.52004E-04	6.37231
9.52542E-04	6.36986
9.53079E-04	6.36745
9.53617E-04	6.36509
9.54155E-04	6.36276
9.54977E-04	6.35925
9.55799E-04	6.35579
9.56621E-04	6.35237
9.57854E-04	6.3473
9.59087E-04	6.34229
9.60321E-04	6.33732
9.61680E-04	6.33187
9.63578E-04	6.32432
9.65475E-04	6.31681
9.67372E-04	6.30933
9.70231E-04	6.2981
9.72141E-04	6.29061
9.75961E-04	6.27568
9.79926E-04	6.26021
9.86535E-04	6.23447
9.93915E-04	6.20576
9.97362E-04	6.19237
1.00313E-03	6.17282
1.01728E-03	6.1249
1.02876E-03	6.08607
1.04335E-03	6.03672
1.05737E-03	5.98936
1.06749E-03	5.95518
1.08013E-03	5.91247
1.09457E-03	5.86375
1.10937E-03	5.81383
1.12233E-03	5.77011
1.13789E-03	5.71766
1.15107E-03	5.67328
1.16204E-03	5.63634
1.17500E-03	5.59271
1.18457E-03	5.56053
1.18990E-03	5.54262
1.19523E-03	5.52176
1.20280E-03	5.49217
1.20933E-03	5.46666
1.21333E-03	5.45103
1.21737E-03	5.43533
1.22039E-03	5.42357
1.22308E-03	5.41313
1.22561E-03	5.40335
1.22814E-03	5.39361
1.23009E-03	5.38616
1.23155E-03	5.38061
1.23300E-03	5.37509
1.23446E-03	5.36961
1.23544E-03	5.366
1.23628E-03	5.3629
1.23735E-03	5.35901
1.23806E-03	5.35646
1.23877E-03	5.35395
1.23949E-03	5.35149
1.24020E-03	5.34909
1.24074E-03	5.34735
1.24127E-03	5.34565
1.24180E-03	5.34403
1.24234E-03	5.34248
1.24270E-03	5.34151
1.24305E-03	5.34058
1.24341E-03	5.33973
1.24377E-03	5.33894
1.24412E-03	5.33825
1.24439E-03	5.33781
1.24461E-03	5.33749
1.24487E-03	5.33719
1.24513E-03	5.33698
1.24539E-03	5.33687
1.24565E-03	5.3369
1.24584E-03	5.33701
1.24604E-03	5.33722
1.24623E-03	5.33755
1.24642E-03	5.33801
1.24655E-03	5.33841
1.24672E-03	5.33901
1.24688E-03	5.33977
1.24704E-03	5.3407
1.24716E-03	5.34153
1.24728E-03	5.3425
1.24740E-03	5.34363
1.24753E-03	5.34496
1.24765E-03	5.34652
1.24777E-03	5.34838
1.24788E-03	5.35036
1.24796E-03	5.35216
1.24805E-03	5.35422
1.24813E-03	5.35661
1.24822E-03	5.35938
1.24828E-03	5.36149
1.24833E-03	5.36384
1.24839E-03	5.36647
1.24845E-03	5.36941
1.24850E-03	5.3727
1.24856E-03	5.37641
1.24862E-03	5.38058
1.24867E-03	5.38528
1.24873E-03	5.39059
1.24878E-03	5.39569
1.24882E-03	5.40036
1.24886E-03	5.40546
1.24889E-03	5.40936
1.24890E-03	5.41121
1.24894E-03	5.41788
1.24898E-03	5.42511
1.24902E-03	5.43294
1.24906E-03	5.44143
1.24910E-03	5.45063
1.24914E-03	5.4606
1.24918E-03	5.47141
1.24922E-03	5.48312
1.24926E-03	5.4958
1.24931E-03	5.50953
1.24935E-03	5.52438
1.24939E-03	5.54044
1.24942E-03	5.55599
1.24947E-03	5.57845
1.24952E-03	5.60304
1.24957E-03	5.62991
1.24962E-03	5.65923
1.24967E-03	5.69115
1.24971E-03	5.72588
1.24976E-03	5.76354
1.24980E-03	5.79073
1.24981E-03	5.80498
1.24986E-03	5.85097
1.24991E-03	5.90042
1.24995E-03	5.94708
1.25001E-03	6.00927
1.25006E-03	6.07612
1.25011E-03	6.14781
1.25017E-03	6.22444
1.25022E-03	6.30613
1.25027E-03	6.39291
1.25033E-03	6.48482
1.25039E-03	6.60763
1.25045E-03	6.72542
1.25054E-03	6.89212
1.25057E-03	6.97529
1.25062E-03	7.07032
1.25071E-03	7.2878
1.25084E-03	7.60658
1.25119E-03	8.49827
1.25133E-03	8.82373
1.25143E-03	9.05294
1.25152E-03	9.22786
1.25157E-03	9.32348
1.25167E-03	9.4658
1.25174E-03	9.55175
1.25183E-03	9.63338
1.25193E-03	9.68065
1.25198E-03	9.68904
1.25200E-03	9.69144
1.25205E-03	9.68328
1.25212E-03	9.65418
1.25222E-03	9.58533
1.25229E-03	9.50867
1.25237E-03	9.39787
1.25247E-03	9.24626
1.25254E-03	9.11122
1.25256E-03	9.0666
1.25267E-03	8.82403
1.25280E-03	8.52502
1.25299E-03	8.03047
1.25317E-03	7.58254
1.25327E-03	7.3184
1.25338E-03	7.06699
1.25348E-03	6.85703
1.25355E-03	6.70922
1.25362E-03	6.56993
1.25369E-03	6.43951
1.25376E-03	6.3181
1.25378E-03	6.28211
1.25381E-03	6.24342
1.25386E-03	6.16289
1.25391E-03	6.09826
1.25396E-03	6.03743
1.25400E-03	5.98028
1.25405E-03	5.92675
1.25410E-03	5.87668
1.25415E-03	5.82996
1.25419E-03	5.78644
1.25424E-03	5.74599
1.25429E-03	5.70845
1.25433E-03	5.67367
1.25437E-03	5.64853
1.25441E-03	5.62489
1.25444E-03	5.60266
1.25448E-03	5.5818
1.25452E-03	5.5622
1.25455E-03	5.54383
1.25459E-03	5.5266
1.25463E-03	5.51045
1.25466E-03	5.49701
1.25466E-03	5.49545
1.25470E-03	5.48243
1.25474E-03	5.47031
1.25477E-03	5.45903
1.25481E-03	5.44855
1.25484E-03	5.43881
1.25488E-03	5.42975
1.25493E-03	5.41846
1.25497E-03	5.41026
1.25501E-03	5.40268
1.25505E-03	5.3957
1.25509E-03	5.38925
1.25513E-03	5.3833
1.25518E-03	5.37607
1.25523E-03	5.36956
1.25529E-03	5.36369
1.25534E-03	5.3584
1.25539E-03	5.35362
1.25544E-03	5.34929
1.25550E-03	5.34536
1.25555E-03	5.34178
1.25560E-03	5.33851
1.25566E-03	5.33552
1.25571E-03	5.33278
1.25576E-03	5.33025
1.25583E-03	5.32705
1.25591E-03	5.32417
1.25598E-03	5.32155
1.25605E-03	5.31916
1.25613E-03	5.31696
1.25623E-03	5.31395
1.25634E-03	5.31125
1.25645E-03	5.30878
1.25656E-03	5.30652
1.25664E-03	5.3051
1.25678E-03	5.30246
1.25693E-03	5.30003
1.25707E-03	5.29778
1.25722E-03	5.29568
1.25732E-03	5.29435
1.25751E-03	5.29185
1.25771E-03	5.28951
1.25790E-03	5.28732
1.25809E-03	5.28524
1.25829E-03	5.28328
1.25848E-03	5.2814
1.25873E-03	5.27916
1.25897E-03	5.27702
1.25921E-03	5.27497
1.25946E-03	5.27299
1.25978E-03	5.27046
1.26010E-03	5.26802
1.26043E-03	5.26566
1.26075E-03	5.26337
1.26108E-03	5.26114
1.26154E-03	5.25804
1.26200E-03	5.25503
1.26246E-03	5.25208
1.26292E-03	5.24918
1.26354E-03	5.24539
1.26416E-03	5.24167
1.26458E-03	5.23916
1.26477E-03	5.23801
1.26539E-03	5.23444
1.26600E-03	5.2309
1.26701E-03	5.22519
1.26801E-03	5.21954
1.26902E-03	5.21393
1.27053E-03	5.20559
1.27203E-03	5.19731
1.27404E-03	5.18633
1.27618E-03	5.17471
1.27690E-03	5.17085
1.27981E-03	5.15509
1.28273E-03	5.1394
1.28558E-03	5.12411
1.28830E-03	5.10959
1.29101E-03	5.0951
1.29192E-03	5.09028
1.29402E-03	5.07593
1.29718E-03	5.05447
1.30034E-03	5.03307
1.30343E-03	5.01222
1.30549E-03	4.99838
1.30755E-03	4.98459
1.30858E-03	4.97772
1.30961E-03	4.96851
1.31167E-03	4.95015
1.31373E-03	4.93189
1.31527E-03	4.91825
1.31682E-03	4.90469
1.31817E-03	4.89284
1.31953E-03	4.88106
1.32043E-03	4.87326
1.32089E-03	4.86785
1.32224E-03	4.85171
1.32360E-03	4.83569
1.32496E-03	4.8198
1.32586E-03	4.8093
1.32677E-03	4.79888
1.32767E-03	4.78855
1.32857E-03	4.77432
1.32948E-03	4.76022
1.33038E-03	4.74626
1.33129E-03	4.73247
1.33194E-03	4.72263
1.33259E-03	4.71291
1.33270E-03	4.71143
1.33325E-03	4.69977
1.33390E-03	4.68614
1.33455E-03	4.67268
1.33521E-03	4.6594
1.33586E-03	4.64636
1.33651E-03	4.63357
1.33692E-03	4.62586
1.33702E-03	4.623
1.33752E-03	4.60891
1.33802E-03	4.59503
1.33852E-03	4.58142
1.33903E-03	4.5681
1.33953E-03	4.55511
1.33993E-03	4.54504
1.34003E-03	4.54145
1.34053E-03	4.52397
1.34089E-03	4.51204
1.34124E-03	4.50039
1.34159E-03	4.48906
1.34174E-03	4.48437
1.34194E-03	4.4757
1.34229E-03	4.46095
1.34264E-03	4.44665
1.34300E-03	4.43288
1.34335E-03	4.41971
1.34335E-03	4.41971
1.34372E-03	4.40062
1.34410E-03	4.38246
1.34435E-03	4.37095
1.34460E-03	4.35998
1.34465E-03	4.35791
1.34486E-03	4.34606
1.34511E-03	4.33194
1.34536E-03	4.31859
1.34558E-03	4.30732
1.34566E-03	4.30383
1.34581E-03	4.29351
1.34604E-03	4.27893
1.34626E-03	4.26538
1.34649E-03	4.25298
1.34666E-03	4.24438
1.34671E-03	4.24055
1.34694E-03	4.22486
1.34717E-03	4.21095
1.34733E-03	4.20217
1.34742E-03	4.1981
1.34749E-03	4.19212
1.34766E-03	4.18052
1.34782E-03	4.17048
1.34798E-03	4.1622
1.34815E-03	4.15596
1.34817E-03	4.15536
1.34831E-03	4.14666
1.34847E-03	4.1391
1.34860E-03	4.13545
1.34872E-03	4.13396
1.34872E-03	4.13396
1.34885E-03	4.12956
1.34898E-03	4.12806
1.34910E-03	4.12998
1.34923E-03	4.13599
1.34928E-03	4.14008
1.34932E-03	4.1417
1.34942E-03	4.14838
1.34948E-03	4.15487
1.34958E-03	4.16921
1.34965E-03	4.18364
1.34973E-03	4.20175
1.34981E-03	4.2241
1.34988E-03	4.25135
1.34996E-03	4.28431
1.35003E-03	4.32388
1.35011E-03	4.37116
1.35018E-03	4.42741
1.35023E-03	4.47063
1.35028E-03	4.51897
1.35035E-03	4.59387
1.35041E-03	4.67909
1.35047E-03	4.77606
1.35049E-03	4.80463
1.35054E-03	4.89218
1.35058E-03	4.97921
1.35062E-03	5.07344
1.35066E-03	5.16136
1.35066E-03	5.17632
1.35071E-03	5.29254
1.35075E-03	5.41791
1.35075E-03	5.41792
1.35079E-03	5.55896
1.35083E-03	5.71065
1.35085E-03	5.78313
1.35088E-03	5.87812
1.35092E-03	6.06138
1.35096E-03	6.23597
1.35096E-03	6.25868
1.35102E-03	6.54638
1.35103E-03	6.64819
1.35107E-03	6.86761
1.35111E-03	7.12704
1.35113E-03	7.22429
1.35118E-03	7.62129
1.35119E-03	7.69965
1.35124E-03	8.06416
1.35127E-03	8.36697
1.35129E-03	8.55194
1.35135E-03	9.08905
1.35135E-03	9.1334
1.35140E-03	9.6829
1.35141E-03	9.78662
1.35146E-03	10.3354
1.35147E-03	10.5091
1.35151E-03	11.0498
1.35153E-03	11.3028
1.35155E-03	11.5621
1.35159E-03	12.179
1.35160E-03	12.39
1.35165E-03	13.1359
1.35166E-03	13.2898
1.35171E-03	14.1798
1.35171E-03	14.265
1.35177E-03	15.3193
1.35177E-03	15.4205
1.35183E-03	16.4541
1.35183E-03	16.4541
1.35188E-03	17.5618
1.35188E-03	17.6751
1.35194E-03	18.983
1.35195E-03	19.3593
1.35201E-03	20.9703
1.35203E-03	21.3105
1.35208E-03	22.8455
1.35210E-03	23.4301
1.35215E-03	24.8527
1.35218E-03	25.7169
1.35224E-03	27.7266
1.35225E-03	28.1481
1.35233E-03	30.7329
1.35233E-03	30.8206
1.35240E-03	33.4741
1.35242E-03	34.2195
1.35248E-03	36.3406
1.35253E-03	38.3052
1.35258E-03	40.3316
1.35269E-03	44.7284
1.35273E-03	46.4378
1.35281E-03	50.0198
1.35293E-03	54.8174
1.35306E-03	60.2781
1.35318E-03	64.9089
1.35318E-03	65.0518
1.35329E-03	68.5471
1.35332E-03	69.561
1.35339E-03	71.7681
1.35343E-03	72.9708
1.35347E-03	73.9095
1.35354E-03	75.5578
1.35355E-03	75.7299
1.35364E-03	77.3083
1.35364E-03	77.3084
1.35371E-03	78.2654
1.35375E-03	78.5638
1.35380E-03	78.9391
1.35384E-03	79.063
1.35390E-03	79.1688
1.35392E-03	79.119
1.35398E-03	78.8927
1.35401E-03	78.6449
1.35407E-03	78.0476
1.35409E-03	77.8075
1.35417E-03	76.6461
1.35418E-03	76.4259
1.35425E-03	74.9764
1.35430E-03	73.9584
1.35435E-03	72.7562
1.35442E-03	70.7459
1.35445E-03	69.7976
1.35454E-03	66.9599
1.35457E-03	65.8828
1.35465E-03	62.9291
1.35472E-03	60.5217
1.35477E-03	58.6513
1.35495E-03	51.7399
1.35504E-03	48.0904
1.35515E-03	44.0603
1.35525E-03	40.165
1.35533E-03	37.4879
1.35533E-03	37.3121
1.35542E-03	34.2826
1.35548E-03	32.5113
1.35549E-03	32.1178
1.35556E-03	30.0813
1.35563E-03	28.1344
1.35563E-03	28.0652
1.35568E-03	26.719
1.35573E-03	25.4282
1.35574E-03	25.1762
1.35580E-03	23.7351
1.35583E-03	23.0491
1.35586E-03	22.3823
1.35592E-03	21.1156
1.35593E-03	20.9154
1.35598E-03	19.9437
1.35602E-03	19.2423
1.35604E-03	18.8519
1.35609E-03	18.0878
1.35611E-03	17.7421
1.35613E-03	17.3686
1.35619E-03	16.5533
1.35620E-03	16.4112
1.35624E-03	15.8029
1.35628E-03	15.2354
1.35630E-03	15.1036
1.35635E-03	14.4671
1.35640E-03	13.8658
1.35642E-03	13.7317
1.35646E-03	13.3229
1.35651E-03	12.8183
1.35655E-03	12.5008
1.35657E-03	12.3503
1.35662E-03	11.9246
1.35664E-03	11.8093
1.35668E-03	11.5368
1.35671E-03	11.2943
1.35675E-03	11.0737
1.35676E-03	11.0169
1.35680E-03	10.764
1.35685E-03	10.5225
1.35686E-03	10.4566
1.35689E-03	10.3032
1.35693E-03	10.0983
1.35698E-03	9.90261
1.35702E-03	9.71526
1.35702E-03	9.70882
1.35707E-03	9.55074
1.35711E-03	9.39384
1.35718E-03	9.17064
1.35719E-03	9.1306
1.35724E-03	8.97313
1.35730E-03	8.81613
1.35731E-03	8.79204
1.35737E-03	8.63352
1.35745E-03	8.46989
1.35750E-03	8.34822
1.35752E-03	8.31582
1.35756E-03	8.2412
1.35762E-03	8.14232
1.35770E-03	8.00126
1.35777E-03	7.89245
1.35779E-03	7.87049
1.35787E-03	7.75834
1.35796E-03	7.65155
1.35802E-03	7.57207
1.35804E-03	7.55217
1.35812E-03	7.46658
1.35821E-03	7.38436
1.35832E-03	7.27921
1.35840E-03	7.21187
1.35843E-03	7.19029
1.35853E-03	7.11427
1.35860E-03	7.0651
1.35874E-03	6.96985
1.35885E-03	6.89486
1.35888E-03	6.88062
1.35901E-03	6.80532
1.35915E-03	6.73261
1.35929E-03	6.66214
1.35934E-03	6.63722
1.35943E-03	6.59964
1.35960E-03	6.52691
1.35978E-03	6.45656
1.35983E-03	6.43705
1.35996E-03	6.39569
1.36013E-03	6.33958
1.36031E-03	6.28503
1.36048E-03	6.23184
1.36058E-03	6.20214
1.36066E-03	6.18357
1.36083E-03	6.14132
1.36106E-03	6.08838
1.36129E-03	6.03682
1.36134E-03	6.02563
1.36151E-03	5.99315
1.36174E-03	5.95244
1.36197E-03	5.91265
1.36219E-03	5.87368
1.36234E-03	5.84819
1.36242E-03	5.83766
1.36264E-03	5.80673
1.36295E-03	5.76637
1.36325E-03	5.7269
1.36335E-03	5.71401
1.36355E-03	5.69289
1.36385E-03	5.66191
1.36415E-03	5.63152
1.36445E-03	5.60165
1.36475E-03	5.57225
1.36475E-03	5.57225
1.36506E-03	5.54929
1.36546E-03	5.51923
1.36586E-03	5.48975
1.36626E-03	5.46075
1.36656E-03	5.43933
1.36666E-03	5.43392
1.36707E-03	5.41265
1.36747E-03	5.39171
1.36787E-03	5.37107
1.36827E-03	5.35069
1.36877E-03	5.32555
1.36928E-03	5.30071
1.36948E-03	5.29089
1.36978E-03	5.28005
1.37028E-03	5.26223
1.37078E-03	5.24462
1.37129E-03	5.2272
1.37204E-03	5.20139
1.37269E-03	5.17928
1.37300E-03	5.16915
1.37310E-03	5.16661
1.37390E-03	5.14653
1.37470E-03	5.1267
1.37551E-03	5.10707
1.37631E-03	5.08762
1.37712E-03	5.06832
1.37752E-03	5.05875
1.37792E-03	5.0516
1.37872E-03	5.03742
1.37969E-03	5.02047
1.38066E-03	5.00365
1.38163E-03	4.98694
1.38260E-03	4.97033
1.38405E-03	4.94556
1.38516E-03	4.92689
1.38551E-03	4.92235
1.38703E-03	4.90274
1.38869E-03	4.88147
1.39036E-03	4.86032
1.39202E-03	4.83926
1.39313E-03	4.82527
1.39535E-03	4.79737
1.39724E-03	4.77371
1.39724E-03	4.77371
1.40007E-03	4.74299
1.40290E-03	4.71238
1.40635E-03	4.67522
1.40980E-03	4.63816
1.41325E-03	4.6012
1.41728E-03	4.55818
1.42130E-03	4.51523
1.42590E-03	4.46625
1.43050E-03	4.41735
1.43510E-03	4.36854
1.43970E-03	4.31981
1.44488E-03	4.25775
1.45005E-03	4.1958
1.45408E-03	4.1477
1.45810E-03	4.0933
1.46270E-03	4.03123
1.46730E-03	3.96929
1.47190E-03	3.89959
1.47650E-03	3.83004
1.47995E-03	3.77173
1.48340E-03	3.71354
1.48570E-03	3.67484
1.48685E-03	3.65285
1.49030E-03	3.58704
1.49375E-03	3.52141
1.49490E-03	3.49959
1.49720E-03	3.45026
1.50065E-03	3.37649
1.50180E-03	3.35199
1.50410E-03	3.29695
1.50755E-03	3.21471
1.50870E-03	3.1874
1.50985E-03	3.1564
1.51215E-03	3.09459
1.51445E-03	3.03299
1.51560E-03	3.00231
1.51675E-03	2.96793
1.51905E-03	2.89943
1.52020E-03	2.86534
1.52135E-03	2.82785
1.52351E-03	2.7579
1.52451E-03	2.72541
1.52552E-03	2.6898
1.52753E-03	2.61891
1.52854E-03	2.58367
1.52954E-03	2.54485
1.53156E-03	2.46768
1.53256E-03	2.42938
1.53357E-03	2.38703
1.53508E-03	2.32393
1.53659E-03	2.26124
1.53810E-03	2.19306
1.53961E-03	2.12543
1.54112E-03	2.0528
1.54263E-03	1.98088
1.54413E-03	1.90382
1.54564E-03	1.82771
1.54712E-03	1.74854
1.54852E-03	1.67439
1.54866E-03	1.66689
1.54945E-03	1.6227
1.55039E-03	1.57114
1.55132E-03	1.5203
1.55168E-03	1.50107
1.55226E-03	1.46874
1.55319E-03	1.41711
1.55412E-03	1.36654
1.55520E-03	1.3097
1.55628E-03	1.25475
1.55700E-03	1.21932
1.55758E-03	1.19185
1.55772E-03	1.18545
1.55844E-03	1.1547
1.55901E-03	1.1312
1.55916E-03	1.12596
1.55987E-03	1.10132
1.56009E-03	1.09447
1.56063E-03	1.08015
1.56094E-03	1.07294
1.56138E-03	1.06494
1.56166E-03	1.06094
1.56214E-03	1.05743
1.56239E-03	1.05658
1.56288E-03	1.05846
1.56289E-03	1.05866
1.56336E-03	1.06591
1.56365E-03	1.07273
1.56385E-03	1.07836
1.56421E-03	1.09175
1.56422E-03	1.09234
1.56449E-03	1.10554
1.56487E-03	1.12727
1.56490E-03	1.12896
1.56530E-03	1.15897
1.56536E-03	1.16368
1.56571E-03	1.19607
1.56584E-03	1.21018
1.56598E-03	1.22506
1.56624E-03	1.25778
1.56633E-03	1.26856
1.56651E-03	1.29485
1.56675E-03	1.33019
1.56678E-03	1.33621
1.56705E-03	1.38178
1.56726E-03	1.42283
1.56730E-03	1.43029
1.56756E-03	1.48488
1.56778E-03	1.53694
1.56781E-03	1.54433
1.56807E-03	1.61106
1.56830E-03	1.67664
1.56832E-03	1.68349
1.56858E-03	1.76432
1.56870E-03	1.80556
1.56883E-03	1.85315
1.56906E-03	1.93985
1.56912E-03	1.96319
1.56926E-03	2.02329
1.56946E-03	2.11274
1.56954E-03	2.14843
1.56966E-03	2.20967
1.56987E-03	2.31385
1.56996E-03	2.36533
1.57007E-03	2.42647
1.57027E-03	2.54784
1.57038E-03	2.61939
1.57047E-03	2.67875
1.57066E-03	2.80988
1.57080E-03	2.9166
1.57083E-03	2.93854
1.57100E-03	3.07737
1.57117E-03	3.21792
1.57117E-03	3.22419
1.57135E-03	3.38301
1.57152E-03	3.55094
1.57153E-03	3.56574
1.57169E-03	3.73258
1.57186E-03	3.9252
1.57190E-03	3.96815
1.57209E-03	4.20558
1.57227E-03	4.43309
1.57231E-03	4.49141
1.57253E-03	4.80503
1.57263E-03	4.97411
1.57274E-03	5.14673
1.57290E-03	5.41988
1.57296E-03	5.52109
1.57317E-03	5.93102
1.57319E-03	5.96062
1.57339E-03	6.38264
1.57347E-03	6.57872
1.57360E-03	6.87851
1.57376E-03	7.27619
1.57382E-03	7.42371
1.57396E-03	7.8188
1.57405E-03	8.06973
1.57411E-03	8.2399
1.57425E-03	8.69038
1.57426E-03	8.73872
1.57444E-03	9.35105
1.57448E-03	9.48381
1.57464E-03	10.0768
1.57470E-03	10.311
1.57483E-03	10.8756
1.57491E-03	11.2312
1.57503E-03	11.7566
1.57513E-03	12.2505
1.57516E-03	12.3938
1.57534E-03	13.3949
1.57552E-03	14.4155
1.57556E-03	14.6927
1.57569E-03	15.5374
1.57577E-03	16.1501
1.57586E-03	16.7732
1.57599E-03	17.792
1.57603E-03	18.1376
1.57615E-03	19.1291
1.57620E-03	19.6563
1.57627E-03	20.2319
1.57636E-03	21.1887
1.57639E-03	21.4638
1.57651E-03	22.7952
1.57652E-03	22.8781
1.57664E-03	24.24
1.57668E-03	24.7634
1.57676E-03	25.8061
1.57684E-03	26.8484
1.57688E-03	27.5066
1.57700E-03	29.16
1.57701E-03	29.356
1.57713E-03	31.3763
1.57715E-03	31.7557
1.57724E-03	33.346
1.57731E-03	34.6624
1.57734E-03	35.2191
1.57744E-03	37.236
1.57747E-03	37.9324
1.57754E-03	39.4079
1.57759E-03	40.7102
1.57763E-03	41.7503
1.57771E-03	43.7528
1.57773E-03	44.2782
1.57783E-03	47.0102
1.57783E-03	47.0966
1.57793E-03	49.973
1.57795E-03	50.8143
1.57802E-03	53.0842
1.57807E-03	54.9074
1.57811E-03	56.3425
1.57819E-03	59.4147
1.57821E-03	59.8592
1.57830E-03	63.6663
1.57832E-03	64.4316
1.57839E-03	67.7881
1.57844E-03	70.0029
1.57848E-03	72.2438
1.57854E-03	75.2479
1.57857E-03	77.0695
1.57864E-03	80.978
1.57867E-03	82.2947
1.57875E-03	87.2282
1.57875E-03	87.5841
1.57883E-03	92.8972
1.57885E-03	94.1076
1.57891E-03	98.5926
1.57895E-03	101.626
1.57899E-03	104.691
1.57906E-03	109.807
1.57907E-03	111.217
1.57915E-03	118.2
1.57916E-03	118.728
1.57924E-03	125.676
1.57926E-03	128.508
1.57932E-03	133.654
1.57936E-03	137.935
1.57943E-03	145.335
1.57945E-03	147.99
1.57953E-03	157.375
1.57959E-03	164.559
1.57963E-03	170.37
1.57972E-03	182.795
1.57974E-03	184.366
1.57984E-03	199.415
1.57986E-03	202.966
1.57994E-03	215.06
1.58000E-03	224.984
1.58003E-03	230.706
1.58014E-03	248.86
1.58016E-03	252.925
1.58028E-03	274.464
1.58029E-03	276.636
1.58041E-03	301.756
1.58048E-03	316.161
1.58059E-03	337.916
1.58078E-03	380.982
1.58082E-03	388.593
1.58108E-03	448.017
1.58119E-03	472.421
1.58129E-03	493.326
1.58138E-03	512.836
1.58143E-03	521.879
1.58156E-03	548.166
1.58156E-03	548.673
1.58168E-03	569.241
1.58169E-03	570.371
1.58180E-03	587.908
1.58181E-03	589.46
1.58192E-03	603.125
1.58194E-03	605.531
1.58203E-03	615.033
1.58206E-03	618.28
1.58214E-03	624.282
1.58219E-03	627.519
1.58225E-03	630.749
1.58230E-03	632.531
1.58237E-03	634.569
1.58241E-03	634.817
1.58246E-03	634.955
1.58252E-03	633.566
1.58261E-03	631.434
1.58264E-03	629.665
1.58275E-03	623.149
1.58275E-03	622.648
1.58289E-03	610.331
1.58291E-03	608.167
1.58303E-03	593.453
1.58306E-03	588.93
1.58320E-03	569.665
1.58322E-03	565.863
1.58333E-03	546.58
1.58343E-03	529.603
1.58354E-03	508.177
1.58370E-03	475.885
1.58384E-03	448.163
1.58405E-03	406.061
1.58416E-03	382.806
1.58426E-03	364.945
1.58437E-03	342.773
1.58440E-03	336.486
1.58455E-03	309.449
1.58457E-03	307.49
1.58469E-03	287.085
1.58469E-03	286.121
1.58481E-03	267.953
1.58483E-03	264.346
1.58493E-03	250.013
1.58497E-03	244.162
1.58506E-03	231.762
1.58512E-03	224.088
1.58520E-03	214.112
1.58523E-03	209.874
1.58529E-03	203.273
1.58535E-03	196.718
1.58538E-03	193.051
1.58546E-03	184.556
1.58547E-03	183.427
1.58557E-03	174.457
1.58558E-03	173.344
1.58566E-03	166.104
1.58569E-03	163.025
1.58576E-03	157.309
1.58581E-03	153.531
1.58588E-03	148.274
1.58592E-03	144.803
1.58599E-03	139.974
1.58604E-03	136.685
1.58611E-03	132.347
1.58616E-03	129.145
1.58622E-03	125.334
1.58627E-03	122.228
1.58634E-03	118.883
1.58639E-03	115.877
1.58645E-03	112.946
1.58651E-03	110.04
1.58657E-03	107.52
1.58669E-03	102.14
1.58669E-03	101.968
1.58683E-03	96.6191
1.58686E-03	95.1534
1.58696E-03	91.6861
1.58702E-03	89.5643
1.58710E-03	87.1613
1.58717E-03	84.8026
1.58723E-03	83.0129
1.58732E-03	80.4664
1.58737E-03	79.2125
1.58750E-03	75.672
1.58752E-03	75.2608
1.58764E-03	72.4669
1.58772E-03	70.6311
1.58780E-03	68.9097
1.58791E-03	66.487
1.58799E-03	65.1557
1.58811E-03	62.7618
1.58817E-03	61.7561
1.58831E-03	59.3997
1.58836E-03	58.6659
1.58851E-03	56.3532
1.58855E-03	55.8491
1.58873E-03	53.352
1.58873E-03	53.2607
1.58892E-03	50.9053
1.58894E-03	50.6356
1.58911E-03	48.7644
1.58923E-03	47.3923
1.58932E-03	46.5239
1.58952E-03	44.515
1.58955E-03	44.2563
1.58977E-03	42.2052
1.58980E-03	41.9507
1.59001E-03	40.3392
1.59009E-03	39.6539
1.59024E-03	38.6155
1.59038E-03	37.585
1.59046E-03	37.0207
1.59067E-03	35.7136
1.59070E-03	35.5426
1.59093E-03	34.1839
1.59095E-03	34.0153
1.59118E-03	32.7756
1.59124E-03	32.468
1.59147E-03	31.3558
1.59167E-03	30.3902
1.59176E-03	30.0216
1.59205E-03	28.8023
1.59210E-03	28.5601
1.59233E-03	27.6927
1.59254E-03	26.9389
1.59262E-03	26.648
1.59291E-03	25.685
1.59297E-03	25.4936
1.59320E-03	24.7951
1.59332E-03	24.4264
1.59353E-03	23.8295
1.59374E-03	23.2765
1.59392E-03	22.8071
1.59415E-03	22.2338
1.59431E-03	21.8794
1.59470E-03	21.0162
1.59478E-03	20.8415
1.59509E-03	20.2372
1.59540E-03	19.6229
1.59547E-03	19.4986
1.59586E-03	18.8313
1.59603E-03	18.5488
1.59625E-03	18.2092
1.59670E-03	17.5257
1.59722E-03	16.8401
1.59747E-03	16.4997
1.59773E-03	16.1987
1.59825E-03	15.6008
1.59876E-03	15.0724
1.59902E-03	14.8098
1.59927E-03	14.575
1.59979E-03	14.1083
1.60030E-03	13.6917
1.60056E-03	13.4847
1.60097E-03	13.1903
1.60138E-03	12.8979
1.60158E-03	12.7665
1.60219E-03	12.3748
1.60300E-03	11.9074
1.60382E-03	11.4986
1.60423E-03	11.2958
1.60463E-03	11.1215
1.60545E-03	10.7759
1.60626E-03	10.4827
1.60667E-03	10.3374
1.60708E-03	10.2152
1.60787E-03	9.97975
1.60798E-03	9.94642
1.60866E-03	9.78399
1.60934E-03	9.62352
1.60954E-03	9.58744
1.61042E-03	9.43038
1.61070E-03	9.3806
1.61129E-03	9.30855
1.61206E-03	9.21839
1.61217E-03	9.21046
1.61296E-03	9.15766
1.61305E-03	9.15554
1.61387E-03	9.13808
1.61392E-03	9.1388
1.61432E-03	9.14551
1.61480E-03	9.17104
1.61517E-03	9.19206
1.61546E-03	9.22384
1.61602E-03	9.28746
1.61624E-03	9.3268
1.61681E-03	9.42769
1.61687E-03	9.43801
1.61737E-03	9.56649
1.61771E-03	9.65371
1.61794E-03	9.73057
1.61851E-03	9.92562
1.61856E-03	9.94545
1.61907E-03	10.1652
1.61913E-03	10.19
1.61964E-03	10.4513
1.61969E-03	10.4808
1.62020E-03	10.7898
1.62026E-03	10.8246
1.62066E-03	11.1073
1.62083E-03	11.2298
1.62111E-03	11.4664
1.62139E-03	11.7055
1.62156E-03	11.8718
1.62196E-03	12.2634
1.62201E-03	12.3271
1.62238E-03	12.7447
1.62247E-03	12.8525
1.62281E-03	13.2875
1.62292E-03	13.4497
1.62323E-03	13.9
1.62337E-03	14.1265
1.62357E-03	14.4373
1.62383E-03	14.9008
1.62395E-03	15.1248
1.62432E-03	15.8598
1.62433E-03	15.8941
1.62465E-03	16.5925
1.62472E-03	16.7588
1.62497E-03	17.4007
1.62510E-03	17.7312
1.62530E-03	18.2934
1.62549E-03	18.8272
1.62563E-03	19.2805
1.62587E-03	20.0658
1.62596E-03	20.369
1.62616E-03	21.1021
1.62629E-03	21.5919
1.62645E-03	22.242
1.62657E-03	22.7634
1.62681E-03	23.8137
1.62693E-03	24.3915
1.62704E-03	24.9742
1.62728E-03	26.2343
1.62752E-03	27.6107
1.62764E-03	28.3572
1.62776E-03	29.1091
1.62788E-03	29.926
1.62800E-03	30.7478
1.62811E-03	31.6422
1.62823E-03	32.5419
1.62835E-03	33.5197
1.62845E-03	34.3629
1.62858E-03	35.4778
1.62866E-03	36.1915
1.62880E-03	37.6229
1.62886E-03	38.1769
1.62903E-03	39.9742
1.62906E-03	40.3359
1.62926E-03	42.5561
1.62927E-03	42.6877
1.62947E-03	45.2545
1.62948E-03	45.4094
1.62968E-03	48.0609
1.62971E-03	48.5703
1.62988E-03	51.1336
1.62994E-03	52.061
1.63006E-03	54.1142
1.63016E-03	55.9542
1.63030E-03	58.4223
1.63034E-03	59.3199
1.63046E-03	61.576
1.63052E-03	63.0294
1.63062E-03	64.9778
1.63071E-03	67.0723
1.63077E-03	68.6516
1.63089E-03	71.4833
1.63093E-03	72.6224
1.63107E-03	76.302
1.63109E-03	76.9186
1.63125E-03	81.5705
1.63125E-03	81.5708
1.63143E-03	87.4014
1.63145E-03	88.1345
1.63161E-03	93.7942
1.63166E-03	95.4202
1.63177E-03	99.9073
1.63186E-03	103.514
1.63193E-03	106.502
1.63206E-03	112.506
1.63209E-03	113.593
1.63220E-03	119.052
1.63225E-03	121.42
1.63240E-03	129.449
1.63240E-03	129.776
1.63256E-03	138.947
1.63258E-03	140.263
1.63272E-03	148.884
1.63277E-03	152.133
1.63294E-03	163.536
1.63296E-03	165.117
1.63310E-03	176.273
1.63314E-03	179.291
1.63333E-03	194.678
1.63350E-03	209.762
1.63356E-03	215.111
1.63367E-03	225.858
1.63378E-03	237.328
1.63390E-03	248.846
1.63406E-03	266.027
1.63412E-03	273.418
1.63442E-03	307.932
1.63446E-03	312.646
1.63496E-03	371.614
1.63511E-03	389.409
1.63522E-03	402.029
1.63539E-03	420.348
1.63548E-03	430.192
1.63562E-03	443.465
1.63566E-03	447.146
1.63584E-03	462.231
1.63585E-03	463.339
1.63600E-03	474.403
1.63601E-03	474.911
1.63616E-03	483.476
1.63619E-03	484.851
1.63631E-03	490.404
1.63639E-03	492.79
1.63646E-03	495.107
1.63650E-03	495.65
1.63664E-03	497.588
1.63665E-03	497.609
1.63673E-03	497.692
1.63679E-03	496.912
1.63692E-03	495.355
1.63694E-03	494.602
1.63709E-03	490.138
1.63710E-03	489.695
1.63729E-03	480.927
1.63732E-03	479.197
1.63748E-03	469.355
1.63755E-03	464.086
1.63766E-03	455.356
1.63778E-03	445.428
1.63794E-03	430.694
1.63801E-03	424.506
1.63827E-03	398.521
1.63885E-03	336.414
1.63908E-03	312.597
1.63913E-03	308.1
1.63933E-03	287.936
1.63937E-03	283.471
1.63953E-03	268.802
1.63961E-03	261.496
1.63974E-03	250.784
1.63985E-03	241.089
1.63994E-03	233.918
1.64009E-03	222.32
1.64014E-03	218.225
1.64033E-03	205.188
1.64035E-03	203.703
1.64056E-03	189.672
1.64057E-03	188.937
1.64072E-03	180.169
1.64076E-03	178.154
1.64088E-03	171.29
1.64094E-03	168.183
1.64104E-03	162.993
1.64112E-03	158.973
1.64120E-03	155.244
1.64130E-03	150.469
1.64135E-03	148.008
1.64148E-03	142.617
1.64151E-03	141.253
1.64166E-03	135.365
1.64167E-03	134.953
1.64184E-03	128.786
1.64193E-03	125.512
1.64202E-03	122.552
1.64216E-03	118.132
1.64220E-03	116.785
1.64238E-03	111.424
1.64238E-03	111.423
1.64257E-03	106.536
1.64261E-03	105.319
1.64275E-03	101.972
1.64284E-03	99.7494
1.64293E-03	97.7072
1.64306E-03	94.6587
1.64320E-03	91.8527
1.64329E-03	89.9913
1.64343E-03	87.4163
1.64352E-03	85.7073
1.64365E-03	83.3839
1.64386E-03	79.8658
1.64388E-03	79.5653
1.64410E-03	76.1462
1.64421E-03	74.6136
1.64433E-03	72.9398
1.64455E-03	69.9465
1.64456E-03	69.9126
1.64478E-03	67.2028
1.64490E-03	65.7854
1.64501E-03	64.63
1.64525E-03	62.0554
1.64528E-03	61.8089
1.64554E-03	59.2443
1.64560E-03	58.7008
1.64581E-03	56.8854
1.64599E-03	55.3214
1.64607E-03	54.6609
1.64634E-03	52.5989
1.64638E-03	52.2931
1.64674E-03	49.784
1.64677E-03	49.5678
1.64714E-03	47.2478
1.64716E-03	47.1057
1.64751E-03	45.1313
1.64755E-03	44.8734
1.64787E-03	43.1943
1.64794E-03	42.8423
1.64824E-03	41.4459
1.64853E-03	40.1207
1.64861E-03	39.7808
1.64898E-03	38.2631
1.64900E-03	38.1467
1.64934E-03	36.8904
1.64957E-03	36.0559
1.64971E-03	35.5883
1.65008E-03	34.3771
1.65014E-03	34.1913
1.65053E-03	33.0209
1.65070E-03	32.5212
1.65099E-03	31.7681
1.65127E-03	31.0178
1.65144E-03	30.609
1.65183E-03	29.6587
1.65189E-03	29.5377
1.65234E-03	28.5727
1.65268E-03	27.8515
1.65280E-03	27.6406
1.65325E-03	26.8001
1.65353E-03	26.2764
1.65370E-03	25.9989
1.65427E-03	25.0772
1.65438E-03	24.8935
1.65483E-03	24.2405
1.65523E-03	23.6712
1.65540E-03	23.4531
1.65596E-03	22.7284
1.65608E-03	22.5839
1.65653E-03	22.0557
1.65664E-03	21.924
1.65710E-03	21.4484
1.65766E-03	20.8557
1.65778E-03	20.7375
1.65823E-03	20.3247
1.65889E-03	19.7202
1.65901E-03	19.6176
1.65956E-03	19.1801
1.66022E-03	18.6544
1.66024E-03	18.6433
1.66089E-03	18.1904
1.66147E-03	17.7881
1.66188E-03	17.5305
1.66270E-03	17.0303
1.66288E-03	16.9309
1.66355E-03	16.5727
1.66434E-03	16.1471
1.66448E-03	16.0808
1.66541E-03	15.6447
1.66591E-03	15.4141
1.66635E-03	15.2339
1.66728E-03	14.8514
1.66748E-03	14.7705
1.66821E-03	14.5081
1.66915E-03	14.176
1.66957E-03	14.0253
1.67008E-03	13.8691
1.67102E-03	13.5833
1.67167E-03	13.3847
1.67208E-03	13.2751
1.67314E-03	12.9926
1.67370E-03	12.8423
1.67420E-03	12.7257
1.67568E-03	12.3769
1.67579E-03	12.3552
1.67738E-03	12.0307
1.67865E-03	11.7719
1.67897E-03	11.7165
1.68049E-03	11.4523
1.68163E-03	11.2562
1.68198E-03	11.203
1.68346E-03	10.9802
1.68460E-03	10.8108
1.68495E-03	10.7644
1.68643E-03	10.5698
1.68757E-03	10.4218
1.68842E-03	10.324
1.69040E-03	10.0965
1.69082E-03	10.0478
1.69238E-03	9.89378
1.69436E-03	9.69815
1.69535E-03	9.60052
1.69648E-03	9.50454
1.69874E-03	9.31299
1.69987E-03	9.2174
1.70101E-03	9.13414
1.70327E-03	8.96795
1.70440E-03	8.885
1.70553E-03	8.81378
1.70780E-03	8.6716
1.71006E-03	8.52964
1.71119E-03	8.45877
1.71232E-03	8.39843
1.71572E-03	8.21776
1.71798E-03	8.09754
1.71911E-03	8.04517
1.72251E-03	7.88837
1.72477E-03	7.78401
1.72590E-03	7.73836
1.72930E-03	7.60164
1.73269E-03	7.46513
1.73382E-03	7.41969
1.73609E-03	7.3393
1.73948E-03	7.21889
1.74288E-03	7.09864
1.74288E-03	7.09864
1.74627E-03	6.99151
1.74967E-03	6.88452
1.75419E-03	6.74208
1.75872E-03	6.59988
1.75929E-03	6.58312
1.76229E-03	6.49441
1.76679E-03	6.36156
1.77129E-03	6.22895
1.77524E-03	6.11274
1.77920E-03	5.99677
1.78312E-03	5.88194
1.78433E-03	5.84662
1.78569E-03	5.80375
1.78827E-03	5.72306
1.79084E-03	5.64254
1.79318E-03	5.56948
1.79494E-03	5.51481
1.79634E-03	5.46664
1.79845E-03	5.39457
1.80056E-03	5.32266
1.80267E-03	5.25094
1.80337E-03	5.22711
1.80477E-03	5.1742
1.80688E-03	5.09508
1.80899E-03	5.01625
1.80969E-03	4.99008
1.81110E-03	4.93165
1.81320E-03	4.84438
1.81531E-03	4.75755
1.81601E-03	4.72875
1.81689E-03	4.68877
1.81847E-03	4.61713
1.82005E-03	4.54585
1.82023E-03	4.53798
1.82164E-03	4.46888
1.82322E-03	4.39162
1.82445E-03	4.33195
1.82480E-03	4.31316
1.82638E-03	4.22927
1.82796E-03	4.14611
1.82866E-03	4.10952
1.82954E-03	4.05918
1.83059E-03	3.9993
1.83165E-03	3.93991
1.83270E-03	3.88107
1.83287E-03	3.87137
1.83375E-03	3.81804
1.83472E-03	3.75999
1.83560E-03	3.7078
1.83648E-03	3.65622
1.83735E-03	3.60532
1.83823E-03	3.55518
1.83885E-03	3.52068
1.83911E-03	3.50573
1.83999E-03	3.45687
1.84087E-03	3.4091
1.84163E-03	3.36831
1.84236E-03	3.33102
1.84262E-03	3.31925
1.84328E-03	3.29094
1.84394E-03	3.26365
1.84460E-03	3.23748
1.84475E-03	3.23167
1.84526E-03	3.21778
1.84592E-03	3.20107
1.84602E-03	3.19855
1.84657E-03	3.19273
1.84730E-03	3.18724
1.84735E-03	3.18767
1.84813E-03	3.19688
1.84825E-03	3.19881
1.84865E-03	3.21078
1.84889E-03	3.21899
1.84916E-03	3.23329
1.84968E-03	3.26217
1.84977E-03	3.26716
1.85020E-03	3.30476
1.85060E-03	3.34135
1.85072E-03	3.35515
1.85116E-03	3.4093
1.85116E-03	3.40958
1.85160E-03	3.47738
1.85172E-03	3.49677
1.85204E-03	3.55819
1.85227E-03	3.6058
1.85247E-03	3.65334
1.85283E-03	3.7409
1.85291E-03	3.76407
1.85325E-03	3.86277
1.85335E-03	3.89685
1.85367E-03	4.00507
1.85379E-03	4.05248
1.85402E-03	4.14274
1.85423E-03	4.23557
1.85437E-03	4.29884
1.85458E-03	4.40455
1.85472E-03	4.4764
1.85493E-03	4.59649
1.85507E-03	4.67807
1.85528E-03	4.8145
1.85543E-03	4.90716
1.85564E-03	5.06222
1.85578E-03	5.16752
1.85599E-03	5.34392
1.85613E-03	5.46366
1.85634E-03	5.66165
1.85639E-03	5.71206
1.85661E-03	5.93893
1.85669E-03	6.02733
1.85687E-03	6.23721
1.85704E-03	6.44429
1.85714E-03	6.56651
1.85740E-03	6.93026
1.85744E-03	6.98332
1.85766E-03	7.33372
1.85770E-03	7.39277
1.85793E-03	7.78155
1.85796E-03	7.84718
1.85819E-03	8.27925
1.85823E-03	8.35232
1.85845E-03	8.83338
1.85849E-03	8.91423
1.85867E-03	9.34413
1.85875E-03	9.54577
1.85894E-03	10.0225
1.85902E-03	10.2444
1.85911E-03	10.5198
1.85929E-03	11.0553
1.85932E-03	11.17
1.85946E-03	11.6358
1.85959E-03	12.0729
1.85964E-03	12.2628
1.85982E-03	12.9426
1.85985E-03	13.0887
1.85999E-03	13.6816
1.86011E-03	14.2469
1.86022E-03	14.7486
1.86038E-03	15.5266
1.86038E-03	15.5385
1.86053E-03	16.3709
1.86064E-03	17.0402
1.86068E-03	17.2784
1.86082E-03	18.1678
1.86084E-03	18.2613
1.86099E-03	19.3267
1.86100E-03	19.4086
1.86114E-03	20.4835
1.86118E-03	20.7788
1.86129E-03	21.6882
1.86136E-03	22.2866
1.86143E-03	22.9382
1.86154E-03	23.9478
1.86157E-03	24.2908
1.86172E-03	25.757
1.86172E-03	25.7816
1.86186E-03	27.3533
1.86190E-03	27.8401
1.86200E-03	29.0889
1.86206E-03	29.9126
1.86214E-03	30.9803
1.86221E-03	31.97
1.86228E-03	33.0463
1.86236E-03	34.223
1.86241E-03	35.0946
1.86250E-03	36.6949
1.86253E-03	37.0913
1.86264E-03	39.2467
1.86265E-03	39.4218
1.86276E-03	41.5795
1.86280E-03	42.4532
1.86287E-03	44.1028
1.86295E-03	45.7937
1.86299E-03	46.8353
1.86309E-03	49.4801
1.86311E-03	49.7973
1.86322E-03	53.0162
1.86323E-03	53.2784
1.86333E-03	56.2423
1.86336E-03	57.1485
1.86343E-03	59.4337
1.86348E-03	61.3854
1.86353E-03	62.8622
1.86361E-03	66.0166
1.86362E-03	66.5471
1.86372E-03	70.5141
1.86374E-03	71.1201
1.86382E-03	74.7868
1.86386E-03	76.7472
1.86392E-03	79.3834
1.86399E-03	82.9072
1.86402E-03	84.3286
1.86412E-03	89.6484
1.86412E-03	89.6486
1.86421E-03	95.3826
1.86423E-03	96.6958
1.86431E-03	101.548
1.86435E-03	103.903
1.86441E-03	108.174
1.86446E-03	111.72
1.86451E-03	115.291
1.86457E-03	120.188
1.86461E-03	122.927
1.86468E-03	129.347
1.86471E-03	131.11
1.86480E-03	139.238
1.86480E-03	139.867
1.86491E-03	150.005
1.86494E-03	152.725
1.86502E-03	161.541
1.86506E-03	165.98
1.86517E-03	177.901
1.86519E-03	180.302
1.86531E-03	194.442
1.86532E-03	195.735
1.86544E-03	212.28
1.86544E-03	212.28
1.86560E-03	234.018
1.86563E-03	238.226
1.86574E-03	255.157
1.86581E-03	266.307
1.86588E-03	277.516
1.86602E-03	301.178
1.86609E-03	313.051
1.86634E-03	358.02
1.86668E-03	419.036
1.86683E-03	445.584
1.86691E-03	459.86
1.86706E-03	484.642
1.86710E-03	490.626
1.86721E-03	508.395
1.86726E-03	514.904
1.86740E-03	534.358
1.86742E-03	536.651
1.86755E-03	550.806
1.86759E-03	554.612
1.86769E-03	564.309
1.86775E-03	568.682
1.86783E-03	574.634
1.86786E-03	575.885
1.86798E-03	581.502
1.86800E-03	582.045
1.86813E-03	584.839
1.86813E-03	584.963
1.86820E-03	585.126
1.86825E-03	584.547
1.86830E-03	583.868
1.86842E-03	580.275
1.86844E-03	579.433
1.86858E-03	571.936
1.86858E-03	571.802
1.86874E-03	559.028
1.86875E-03	558.607
1.86890E-03	543.282
1.86891E-03	542.667
1.86905E-03	525.201
1.86907E-03	523.079
1.86926E-03	497.617
1.86929E-03	492.389
1.86946E-03	467.126
1.86963E-03	440.155
1.86995E-03	388.429
1.86997E-03	386.208
1.87022E-03	346.426
1.87025E-03	342.032
1.87039E-03	321.195
1.87047E-03	308.768
1.87057E-03	295.094
1.87064E-03	285.389
1.87072E-03	275.343
1.87081E-03	263.546
1.87087E-03	256.77
1.87098E-03	243.307
1.87101E-03	239.407
1.87115E-03	224.694
1.87116E-03	223.256
1.87129E-03	210.416
1.87132E-03	207.758
1.87143E-03	197.202
1.87154E-03	187.456
1.87157E-03	185.034
1.87165E-03	178.3
1.87171E-03	173.838
1.87177E-03	169.708
1.87185E-03	163.55
1.87188E-03	161.653
1.87199E-03	154.11
1.87210E-03	147.183
1.87213E-03	145.462
1.87223E-03	139.898
1.87227E-03	137.531
1.87237E-03	132.426
1.87241E-03	130.254
1.87251E-03	125.57
1.87255E-03	123.577
1.87265E-03	119.274
1.87269E-03	117.443
1.87279E-03	113.559
1.87290E-03	109.151
1.87293E-03	108.166
1.87307E-03	103.276
1.87311E-03	101.818
1.87321E-03	98.7681
1.87332E-03	95.3059
1.87337E-03	94.1778
1.87350E-03	90.3425
1.87353E-03	89.6676
1.87370E-03	85.538
1.87372E-03	84.916
1.87386E-03	81.7734
1.87394E-03	80.0604
1.87403E-03	78.2772
1.87415E-03	75.6941
1.87419E-03	75.0284
1.87436E-03	72.0315
1.87437E-03	71.754
1.87452E-03	69.2876
1.87459E-03	68.1874
1.87472E-03	66.2454
1.87481E-03	64.9442
1.87495E-03	63.0164
1.87502E-03	61.9848
1.87517E-03	60.0992
1.87530E-03	58.5612
1.87540E-03	57.3923
1.87547E-03	56.6511
1.87563E-03	54.977
1.87581E-03	53.1787
1.87586E-03	52.6969
1.87609E-03	50.6225
1.87614E-03	50.1068
1.87632E-03	48.7185
1.87648E-03	47.3735
1.87655E-03	46.8627
1.87680E-03	45.0853
1.87682E-03	44.9275
1.87704E-03	43.4693
1.87716E-03	42.7299
1.87729E-03	41.9539
1.87750E-03	40.7445
1.87754E-03	40.533
1.87778E-03	39.224
1.87783E-03	38.9452
1.87815E-03	37.415
1.87819E-03	37.2459
1.87840E-03	36.3358
1.87871E-03	34.9774
1.87871E-03	34.9774
1.87903E-03	33.7843
1.87924E-03	32.9931
1.87935E-03	32.6413
1.87966E-03	31.5917
1.87977E-03	31.2435
1.87998E-03	30.6208
1.88029E-03	29.6913
1.88029E-03	29.6912
1.88077E-03	28.4471
1.88084E-03	28.2638
1.88114E-03	27.5648
1.88142E-03	26.9103
1.88156E-03	26.6162
1.88198E-03	25.7384
1.88200E-03	25.702
1.88240E-03	24.9461
1.88258E-03	24.619
1.88282E-03	24.2098
1.88324E-03	23.5116
1.88335E-03	23.3378
1.88367E-03	22.8743
1.88406E-03	22.3005
1.88409E-03	22.2637
1.88455E-03	21.6665
1.88503E-03	21.0607
1.88506E-03	21.0215
1.88557E-03	20.4565
1.88600E-03	19.9884
1.88608E-03	19.9053
1.88659E-03	19.4128
1.88696E-03	19.0532
1.88710E-03	18.9371
1.88761E-03	18.5044
1.88793E-03	18.2314
1.88837E-03	17.8987
1.88890E-03	17.5033
1.88899E-03	17.4451
1.88960E-03	17.0387
1.89012E-03	16.699
1.89022E-03	16.6418
1.89083E-03	16.2875
1.89134E-03	15.9974
1.89145E-03	15.9405
1.89206E-03	15.6227
1.89215E-03	15.5775
1.89298E-03	15.1946
1.89371E-03	14.8635
1.89377E-03	14.8335
1.89454E-03	14.531
1.89538E-03	14.204
1.89540E-03	14.1954
1.89621E-03	13.9232
1.89704E-03	13.6448
1.89744E-03	13.5135
1.89788E-03	13.3891
1.89850E-03	13.2126
1.89913E-03	13.0371
1.89948E-03	12.9392
1.89976E-03	12.874
1.90021E-03	12.7683
1.90033E-03	12.7401
1.90069E-03	12.6563
1.90093E-03	12.6012
1.90116E-03	12.5493
1.90134E-03	12.5112
1.90151E-03	12.4743
1.90163E-03	12.4505
1.90174E-03	12.4276
1.90181E-03	12.414
1.90186E-03	12.4074
1.90195E-03	12.3953
1.90203E-03	12.384
1.90212E-03	12.3738
1.90221E-03	12.3649
1.90229E-03	12.3574
1.90238E-03	12.3516
1.90247E-03	12.3478
1.90253E-03	12.3465
1.90258E-03	12.3464
1.90264E-03	12.3474
1.90270E-03	12.3497
1.90276E-03	12.3535
1.90282E-03	12.3593
1.90289E-03	12.3678
1.90295E-03	12.3786
1.90302E-03	12.3922
1.90309E-03	12.4087
1.90315E-03	12.4283
1.90322E-03	12.4513
1.90329E-03	12.4778
1.90332E-03	12.493
1.90336E-03	12.5101
1.90342E-03	12.5484
1.90349E-03	12.5909
1.90356E-03	12.6378
1.90362E-03	12.6893
1.90369E-03	12.7456
1.90376E-03	12.8067
1.90382E-03	12.8728
1.90389E-03	12.9445
1.90396E-03	13.022
1.90403E-03	13.1047
1.90413E-03	13.2383
1.90423E-03	13.3827
1.90434E-03	13.5371
1.90446E-03	13.7324
1.90462E-03	14.0047
1.90496E-03	14.6113
1.90514E-03	14.9144
1.90525E-03	15.0736
1.90537E-03	15.2455
1.90544E-03	15.3342
1.90556E-03	15.4585
1.90566E-03	15.5351
1.90577E-03	15.6017
1.90587E-03	15.6327
1.90596E-03	15.6416
1.90600E-03	15.6389
1.90602E-03	15.6342
1.90608E-03	15.6139
1.90618E-03	15.5622
1.90628E-03	15.4847
1.90636E-03	15.4015
1.90646E-03	15.2827
1.90658E-03	15.1135
1.90669E-03	14.9275
1.90683E-03	14.6707
1.90701E-03	14.3224
1.90746E-03	13.3669
1.90749E-03	13.3083
1.90761E-03	13.0667
1.90773E-03	12.839
1.90782E-03	12.6769
1.90790E-03	12.5358
1.90799E-03	12.391
1.90808E-03	12.2549
1.90815E-03	12.1588
1.90822E-03	12.0676
1.90828E-03	11.9813
1.90834E-03	11.9173
1.90835E-03	11.9006
1.90842E-03	11.827
1.90848E-03	11.758
1.90855E-03	11.6935
1.90862E-03	11.635
1.90868E-03	11.5837
1.90874E-03	11.5356
1.90880E-03	11.4905
1.90886E-03	11.4484
1.90892E-03	11.4089
1.90898E-03	11.372
1.90904E-03	11.3375
1.90910E-03	11.3052
1.90916E-03	11.275
1.90922E-03	11.2466
1.90929E-03	11.22
1.90935E-03	11.1951
1.90941E-03	11.1716
1.90947E-03	11.1494
1.90950E-03	11.1369
1.90953E-03	11.1292
1.90959E-03	11.1112
1.90965E-03	11.0942
1.90971E-03	11.0781
1.90977E-03	11.0629
1.90985E-03	11.0436
1.90992E-03	11.0286
1.91000E-03	11.0118
1.91008E-03	10.9958
1.91016E-03	10.9805
1.91026E-03	10.9611
1.91037E-03	10.9425
1.91047E-03	10.9247
1.91058E-03	10.9074
1.91074E-03	10.8824
1.91090E-03	10.8582
1.91105E-03	10.8346
1.91126E-03	10.8038
1.91148E-03	10.7735
1.91171E-03	10.7402
1.91179E-03	10.7302
1.91200E-03	10.7046
1.91243E-03	10.6539
1.91285E-03	10.6038
1.91327E-03	10.5542
1.91382E-03	10.4897
1.91437E-03	10.4256
1.91509E-03	10.3431
1.91520E-03	10.3318
1.91603E-03	10.2501
1.91713E-03	10.1416
1.91823E-03	10.0337
1.91846E-03	10.0115
1.91934E-03	9.93917
1.92044E-03	9.84835
1.92210E-03	9.71253
1.92326E-03	9.61696
1.92394E-03	9.5704
1.92579E-03	9.44445
1.92764E-03	9.31883
1.92807E-03	9.29025
1.92949E-03	9.20859
1.93134E-03	9.10306
1.93308E-03	9.00419
1.93339E-03	8.98667
1.93532E-03	8.89606
1.93756E-03	8.79122
1.93980E-03	8.68658
1.94092E-03	8.63435
1.94208E-03	8.58942
1.94441E-03	8.49973
1.94674E-03	8.41018
1.94754E-03	8.37961
1.94907E-03	8.33095
1.95139E-03	8.25751
1.95369E-03	8.18457
1.95715E-03	8.07533
1.95727E-03	8.0715
1.96056E-03	7.98594
1.96388E-03	7.89971
1.96626E-03	7.83817
1.96721E-03	7.81799
1.96941E-03	7.77122
1.97159E-03	7.72488
1.97377E-03	7.67864
1.97596E-03	7.63252
1.97730E-03	7.60412
1.97881E-03	7.57244
1.97962E-03	7.55566
1.98007E-03	7.54812
1.98090E-03	7.53419
1.98173E-03	7.52034
1.98257E-03	7.5066
1.98320E-03	7.49639
1.98382E-03	7.48628
1.98445E-03	7.47631
1.98487E-03	7.46975
1.98528E-03	7.46328
1.98570E-03	7.45693
1.98612E-03	7.45072
1.98643E-03	7.44619
1.98674E-03	7.44177
1.98706E-03	7.43751
1.98737E-03	7.43344
1.98758E-03	7.43085
1.98780E-03	7.42821
1.98803E-03	7.42576
1.98820E-03	7.42407
1.98837E-03	7.42254
1.98853E-03	7.42122
1.98870E-03	7.42017
1.98881E-03	7.41965
1.98893E-03	7.41932
1.98904E-03	7.41921
1.98915E-03	7.41939
1.98924E-03	7.41974
1.98932E-03	7.42033
1.98942E-03	7.42133
1.98950E-03	7.42249
1.98958E-03	7.424
1.98966E-03	7.42592
1.98972E-03	7.42766
1.98978E-03	7.4297
1.98984E-03	7.43208
1.98990E-03	7.43483
1.98996E-03	7.43801
1.99002E-03	7.44166
1.99008E-03	7.44583
1.99014E-03	7.45058
1.99020E-03	7.45599
1.99026E-03	7.46211
1.99032E-03	7.46903
1.99038E-03	7.47683
1.99044E-03	7.48559
1.99050E-03	7.49542
1.99056E-03	7.50641
1.99062E-03	7.51868
1.99066E-03	7.52762
1.99071E-03	7.53922
1.99076E-03	7.55182
1.99081E-03	7.56549
1.99085E-03	7.58029
1.99085E-03	7.58029
1.99090E-03	7.59697
1.99095E-03	7.61492
1.99100E-03	7.63422
1.99105E-03	7.65495
1.99109E-03	7.67718
1.99114E-03	7.70098
1.99119E-03	7.72644
1.99124E-03	7.75361
1.99129E-03	7.78259
1.99130E-03	7.79286
1.99134E-03	7.81417
1.99138E-03	7.84808
1.99145E-03	7.89759
1.99152E-03	7.95482
1.99157E-03	8.00075
1.99164E-03	8.06616
1.99171E-03	8.13642
1.99178E-03	8.21165
1.99185E-03	8.29188
1.99192E-03	8.37713
1.99199E-03	8.46735
1.99207E-03	8.57619
1.99215E-03	8.69114
1.99226E-03	8.85335
1.99237E-03	9.02479
1.99250E-03	9.25019
1.99274E-03	9.67506
1.99282E-03	9.81083
1.99300E-03	10.1278
1.99315E-03	10.3829
1.99328E-03	10.5823
1.99340E-03	10.7358
1.99350E-03	10.8534
1.99360E-03	10.9566
1.99369E-03	11.0317
1.99375E-03	11.0689
1.99379E-03	11.0917
1.99389E-03	11.1229
1.99400E-03	11.1344
1.99411E-03	11.1162
1.99421E-03	11.0794
1.99431E-03	11.0163
1.99439E-03	10.9496
1.99449E-03	10.8474
1.99462E-03	10.6955
1.99469E-03	10.5957
1.99473E-03	10.5374
1.99487E-03	10.3165
1.99503E-03	10.0419
1.99549E-03	9.21427
1.99564E-03	8.96193
1.99575E-03	8.78897
1.99585E-03	8.62515
1.99593E-03	8.50894
1.99603E-03	8.37834
1.99610E-03	8.2898
1.99616E-03	8.20595
1.99623E-03	8.12685
1.99630E-03	8.05245
1.99637E-03	7.98271
1.99644E-03	7.91753
1.99650E-03	7.8568
1.99657E-03	7.80195
1.99663E-03	7.7541
1.99664E-03	7.75115
1.99670E-03	7.70622
1.99677E-03	7.66486
1.99684E-03	7.62686
1.99690E-03	7.59203
1.99695E-03	7.57049
1.99699E-03	7.55021
1.99703E-03	7.53115
1.99708E-03	7.51323
1.99712E-03	7.49642
1.99717E-03	7.48064
1.99723E-03	7.46071
1.99727E-03	7.446
1.99732E-03	7.43232
1.99737E-03	7.41959
1.99742E-03	7.40776
1.99747E-03	7.39677
1.99752E-03	7.38656
1.99756E-03	7.37707
1.99761E-03	7.36827
1.99766E-03	7.36009
1.99771E-03	7.35249
1.99776E-03	7.34543
1.99780E-03	7.33886
1.99785E-03	7.33275
1.99790E-03	7.32706
1.99795E-03	7.32176
1.99801E-03	7.31524
1.99808E-03	7.30928
1.99814E-03	7.30383
1.99821E-03	7.29882
1.99826E-03	7.2949
1.99833E-03	7.29045
1.99839E-03	7.28634
1.99846E-03	7.28252
1.99850E-03	7.28012
1.99859E-03	7.27562
1.99868E-03	7.27148
1.99877E-03	7.26764
1.99886E-03	7.26405
1.99894E-03	7.26067
1.99903E-03	7.25747
1.99917E-03	7.25295
1.99930E-03	7.2487
1.99939E-03	7.24576
1.99943E-03	7.24487
1.99956E-03	7.24181
1.99973E-03	7.2381
1.99989E-03	7.23474
2.00005E-03	7.23151
2.00029E-03	7.22687
2.00053E-03	7.22242
2.00077E-03	7.21813
2.00094E-03	7.21534
2.00126E-03	7.2099
2.00158E-03	7.20463
2.00190E-03	7.19948
2.00222E-03	7.19444
2.00265E-03	7.18778
2.00309E-03	7.18124
2.00338E-03	7.17694
2.00395E-03	7.16846
2.00453E-03	7.16009
2.00511E-03	7.15183
2.00569E-03	7.14364
2.00655E-03	7.13147
2.00740E-03	7.11963
2.00853E-03	7.1041
2.00965E-03	7.08867
2.01078E-03	7.0733
2.01246E-03	7.05036
2.01359E-03	7.03511
2.01583E-03	7.00471
2.01847E-03	6.97528
2.02110E-03	6.94592
2.02505E-03	6.90199
2.02855E-03	6.86312
2.03291E-03	6.81468
2.03767E-03	6.76202
2.04023E-03	6.73359
2.04280E-03	6.70965
2.04830E-03	6.65848
2.05416E-03	6.604
2.05708E-03	6.57677
2.06525E-03	6.50087
2.07594E-03	6.41567
2.08352E-03	6.35538
2.09210E-03	6.28707
2.10069E-03	6.2188
2.10684E-03	6.16988
2.11300E-03	6.12652
2.11840E-03	6.08852
2.12380E-03	6.05054
2.12839E-03	6.0183
2.13298E-03	5.98609
2.13642E-03	5.96198
2.13986E-03	5.93792
2.14216E-03	5.92193
2.14439E-03	5.90646
2.14606E-03	5.8949
2.14773E-03	5.88339
2.14884E-03	5.87576
2.14996E-03	5.86817
2.15107E-03	5.86064
2.15213E-03	5.85351
2.15284E-03	5.84881
2.15355E-03	5.84415
2.15426E-03	5.83956
2.15497E-03	5.83504
2.15550E-03	5.83171
2.15603E-03	5.82844
2.15656E-03	5.82526
2.15711E-03	5.82207
2.15748E-03	5.81999
2.15785E-03	5.81798
2.15823E-03	5.81605
2.15860E-03	5.81423
2.15887E-03	5.81294
2.15915E-03	5.81174
2.15943E-03	5.81063
2.15971E-03	5.80964
2.15995E-03	5.80891
2.16018E-03	5.8083
2.16042E-03	5.80783
2.16060E-03	5.80759
2.16077E-03	5.80747
2.16095E-03	5.8075
2.16113E-03	5.8077
2.16130E-03	5.80812
2.16142E-03	5.80855
2.16154E-03	5.80913
2.16164E-03	5.80978
2.16177E-03	5.81081
2.16185E-03	5.81167
2.16194E-03	5.81268
2.16202E-03	5.81388
2.16211E-03	5.81531
2.16219E-03	5.81698
2.16227E-03	5.81896
2.16236E-03	5.82129
2.16242E-03	5.8233
2.16249E-03	5.82557
2.16255E-03	5.82813
2.16261E-03	5.83103
2.16268E-03	5.83429
2.16274E-03	5.83796
2.16280E-03	5.84209
2.16287E-03	5.84674
2.16293E-03	5.85197
2.16295E-03	5.8539
2.16298E-03	5.85695
2.16303E-03	5.86353
2.16309E-03	5.87069
2.16314E-03	5.87848
2.16320E-03	5.88694
2.16325E-03	5.89615
2.16331E-03	5.90616
2.16336E-03	5.91704
2.16342E-03	5.92888
2.16347E-03	5.94174
2.16353E-03	5.9557
2.16358E-03	5.97084
2.16364E-03	5.98727
2.16369E-03	6.00505
2.16375E-03	6.0243
2.16380E-03	6.0451
2.16385E-03	6.06488
2.16391E-03	6.09274
2.16396E-03	6.117
2.16398E-03	6.12358
2.16404E-03	6.15905
2.16410E-03	6.19732
2.16417E-03	6.23853
2.16423E-03	6.28285
2.16429E-03	6.3304
2.16436E-03	6.38134
2.16442E-03	6.43578
2.16448E-03	6.49385
2.16453E-03	6.54404
2.16459E-03	6.60672
2.16464E-03	6.65356
2.16466E-03	6.67395
2.16472E-03	6.74712
2.16481E-03	6.86375
2.16490E-03	6.98862
2.16499E-03	7.12152
2.16509E-03	7.27319
2.16519E-03	7.43324
2.16529E-03	7.60086
2.16541E-03	7.81508
2.16543E-03	7.84689
2.16566E-03	8.29304
2.16591E-03	8.74985
2.16608E-03	9.06537
2.16623E-03	9.31025
2.16635E-03	9.48842
2.16638E-03	9.53443
2.16645E-03	9.61709
2.16654E-03	9.71383
2.16663E-03	9.80508
2.16675E-03	9.89102
2.16685E-03	9.93914
2.16691E-03	9.9553
2.16695E-03	9.96491
2.16696E-03	9.9659
2.16700E-03	9.96635
2.16712E-03	9.94523
2.16722E-03	9.90469
2.16732E-03	9.83587
2.16741E-03	9.76362
2.16745E-03	9.71948
2.16752E-03	9.64838
2.16762E-03	9.52086
2.16773E-03	9.35853
2.16786E-03	9.15631
2.16800E-03	8.91059
2.16805E-03	8.81122
2.16818E-03	8.57231
2.16853E-03	7.91679
2.16866E-03	7.6627
2.16879E-03	7.44764
2.16891E-03	7.24385
2.16897E-03	7.15062
2.16899E-03	7.11434
2.16909E-03	6.96739
2.16916E-03	6.87483
2.16923E-03	6.78671
2.16929E-03	6.70303
2.16936E-03	6.62384
2.16943E-03	6.54906
2.16950E-03	6.47864
2.16956E-03	6.41649
2.16956E-03	6.4126
2.16962E-03	6.36077
2.16969E-03	6.30878
2.16975E-03	6.26022
2.16981E-03	6.21494
2.16988E-03	6.1728
2.16994E-03	6.13365
2.17000E-03	6.09735
2.17007E-03	6.06372
2.17013E-03	6.03262
2.17017E-03	6.01321
2.17023E-03	5.98947
2.17028E-03	5.96734
2.17034E-03	5.94671
2.17034E-03	5.94524
2.17039E-03	5.92932
2.17045E-03	5.91339
2.17050E-03	5.89869
2.17056E-03	5.88514
2.17061E-03	5.87265
2.17067E-03	5.86114
2.17072E-03	5.85054
2.17078E-03	5.84078
2.17083E-03	5.8318
2.17089E-03	5.82352
2.17094E-03	5.8159
2.17100E-03	5.80887
2.17105E-03	5.80239
2.17111E-03	5.79619
2.17116E-03	5.79048
2.17122E-03	5.78521
2.17128E-03	5.78035
2.17133E-03	5.77585
2.17139E-03	5.77167
2.17143E-03	5.76906
2.17151E-03	5.76418
2.17158E-03	5.75974
2.17166E-03	5.75567
2.17173E-03	5.75192
2.17181E-03	5.74846
2.17189E-03	5.74523
2.17196E-03	5.74222
2.17204E-03	5.73939
2.17213E-03	5.73617
2.17215E-03	5.7356
2.17226E-03	5.73283
2.17238E-03	5.73038
2.17248E-03	5.72812
2.17259E-03	5.726
2.17276E-03	5.72307
2.17293E-03	5.72035
2.17309E-03	5.71782
2.17326E-03	5.71543
2.17347E-03	5.71243
2.17370E-03	5.7096
2.17392E-03	5.7069
2.17413E-03	5.7044
2.17444E-03	5.7009
2.17475E-03	5.69756
2.17507E-03	5.69435
2.17538E-03	5.69125
2.17569E-03	5.68824
2.17611E-03	5.68434
2.17653E-03	5.68055
2.17694E-03	5.67685
2.17736E-03	5.67323
2.17792E-03	5.66844
2.17848E-03	5.66373
2.17905E-03	5.6591
2.17961E-03	5.65453
2.18036E-03	5.64851
2.18111E-03	5.64255
2.18186E-03	5.63665
2.18299E-03	5.62788
2.18407E-03	5.61951
2.18549E-03	5.60863
2.18690E-03	5.59782
2.18832E-03	5.58706
2.19045E-03	5.57098
2.19186E-03	5.56029
2.19470E-03	5.53898
2.19736E-03	5.51896
2.20003E-03	5.49898
2.20403E-03	5.46906
2.21070E-03	5.41927
2.21637E-03	5.37697
2.22205E-03	5.33472
2.22806E-03	5.28998
2.22806E-03	5.28998
2.23407E-03	5.2398
2.24008E-03	5.18966
2.24609E-03	5.13956
2.25210E-03	5.0895
2.25811E-03	5.0395
2.26413E-03	4.98347
2.27014E-03	4.9275
2.27615E-03	4.87159
2.28216E-03	4.81576
2.28817E-03	4.75286
2.29419E-03	4.69006
2.30170E-03	4.61171
2.30621E-03	4.5648
2.31072E-03	4.51168
2.31523E-03	4.45866
2.31973E-03	4.40575
2.32424E-03	4.35296
2.32875E-03	4.30031
2.33026E-03	4.28282
2.33326E-03	4.24474
2.33777E-03	4.18782
2.34228E-03	4.13111
2.34679E-03	4.07465
2.34979E-03	4.03717
2.35280E-03	3.99984
2.35562E-03	3.96499
2.35956E-03	3.91647
2.36031E-03	3.90728
2.36219E-03	3.88699
2.36482E-03	3.85876
2.36764E-03	3.82875
2.37046E-03	3.79901
2.37159E-03	3.78723
2.37328E-03	3.77394
2.37609E-03	3.75215
2.37707E-03	3.74471
2.37850E-03	3.73835
2.38090E-03	3.72797
2.38256E-03	3.72108
2.38331E-03	3.72089
2.38571E-03	3.72071
2.38624E-03	3.72078
2.38808E-03	3.72967
2.39004E-03	3.73957
2.39045E-03	3.74409
2.39281E-03	3.77116
2.39385E-03	3.78325
2.39459E-03	3.79725
2.39638E-03	3.83154
2.39638E-03	3.83154
2.39819E-03	3.87922
2.39879E-03	3.8953
2.39999E-03	3.93766
2.40119E-03	3.98045
2.40179E-03	4.00816
2.40360E-03	4.09202
2.40360E-03	4.09202
2.40540E-03	4.19699
2.40540E-03	4.19699
2.40720E-03	4.32385
2.40720E-03	4.32385
2.40901E-03	4.47669
2.40901E-03	4.47669
2.41081E-03	4.66049
2.41081E-03	4.6605
2.41201E-03	4.80758
2.41261E-03	4.88148
2.41322E-03	4.96705
2.41382E-03	5.05302
2.41442E-03	5.14979
2.41502E-03	5.2471
2.41600E-03	5.42489
2.41618E-03	5.45929
2.41731E-03	5.69069
2.41757E-03	5.7512
2.41844E-03	5.95094
2.41863E-03	5.99964
2.41957E-03	6.24405
2.41968E-03	6.27696
2.42069E-03	6.57428
2.42073E-03	6.58666
2.42178E-03	6.93455
2.42182E-03	6.94703
2.42283E-03	7.32689
2.42295E-03	7.36931
2.42379E-03	7.7234
2.42414E-03	7.88415
2.42464E-03	8.11323
2.42501E-03	8.30315
2.42540E-03	8.50132
2.42589E-03	8.7673
2.42617E-03	8.92576
2.42676E-03	9.28084
2.42694E-03	9.39047
2.42763E-03	9.8498
2.42770E-03	9.8999
2.42847E-03	10.4592
2.42850E-03	10.4833
2.42924E-03	11.0744
2.42937E-03	11.1936
2.43000E-03	11.7519
2.43012E-03	11.8689
2.43077E-03	12.5001
2.43107E-03	12.8259
2.43163E-03	13.4308
2.43202E-03	13.9061
2.43248E-03	14.4751
2.43296E-03	15.1206
2.43305E-03	15.2421
2.43363E-03	16.0736
2.43391E-03	16.5234
2.43420E-03	16.9747
2.43454E-03	17.5665
2.43477E-03	17.9535
2.43516E-03	18.6813
2.43534E-03	19.018
2.43576E-03	19.8815
2.43606E-03	20.4998
2.43636E-03	21.1882
2.43678E-03	22.1543
2.43696E-03	22.6079
2.43726E-03	23.3657
2.43756E-03	24.1821
2.43774E-03	24.6733
2.43816E-03	25.9093
2.43822E-03	26.0864
2.43871E-03	27.6161
2.43877E-03	27.8228
2.43919E-03	29.2741
2.43937E-03	29.9564
2.43982E-03	31.6664
2.43991E-03	32.04
2.44024E-03	33.4142
2.44063E-03	35.16
2.44066E-03	35.2947
2.44108E-03	37.3237
2.44111E-03	37.4799
2.44150E-03	39.5146
2.44159E-03	40.021
2.44192E-03	41.8825
2.44207E-03	42.7962
2.44234E-03	44.4447
2.44255E-03	45.827
2.44273E-03	47.0146
2.44303E-03	49.1757
2.44327E-03	50.9088
2.44351E-03	52.8308
2.44382E-03	55.2398
2.44410E-03	57.7372
2.44418E-03	58.3963
2.44454E-03	61.793
2.44469E-03	63.3138
2.44490E-03	65.4491
2.44526E-03	69.3853
2.44527E-03	69.5641
2.44566E-03	74.2222
2.44574E-03	75.1197
2.44605E-03	79.2685
2.44619E-03	81.0501
2.44645E-03	84.7454
2.44664E-03	87.5775
2.44694E-03	92.3645
2.44709E-03	94.7637
2.44739E-03	100.036
2.44754E-03	102.678
2.44784E-03	108.483
2.44799E-03	111.392
2.44829E-03	117.778
2.44844E-03	120.978
2.44874E-03	127.993
2.44890E-03	131.508
2.44921E-03	139.584
2.44935E-03	143.052
2.44971E-03	153.139
2.44980E-03	155.666
2.45020E-03	168.018
2.45025E-03	169.392
2.45070E-03	184.245
2.45070E-03	184.245
2.45115E-03	200.207
2.45136E-03	208.13
2.45160E-03	217.198
2.45220E-03	241.217
2.45225E-03	243.417
2.45338E-03	290.569
2.45387E-03	310.971
2.45395E-03	313.887
2.45448E-03	334.538
2.45451E-03	335.585
2.45488E-03	348.634
2.45492E-03	349.78
2.45529E-03	360.966
2.45537E-03	363.055
2.45570E-03	371.178
2.45571E-03	371.475
2.45603E-03	377.832
2.45605E-03	378.04
2.45639E-03	382.676
2.45644E-03	383.392
2.45650E-03	383.809
2.45685E-03	386.171
2.45689E-03	386.252
2.45704E-03	386.499
2.45728E-03	385.671
2.45746E-03	385.022
2.45767E-03	382.959
2.45782E-03	381.464
2.45806E-03	377.795
2.45818E-03	375.945
2.45847E-03	369.982
2.45866E-03	365.883
2.45887E-03	360.365
2.45915E-03	353.245
2.45948E-03	342.991
2.45963E-03	338.651
2.46035E-03	314.404
2.46050E-03	309.131
2.46149E-03	274.331
2.46188E-03	260.642
2.46203E-03	255.654
2.46251E-03	239.718
2.46257E-03	237.854
2.46311E-03	221.107
2.46314E-03	220.178
2.46365E-03	205.626
2.46377E-03	202.21
2.46419E-03	191.302
2.46441E-03	185.86
2.46474E-03	178.115
2.46504E-03	171.091
2.46528E-03	166.024
2.46567E-03	157.81
2.46582E-03	154.968
2.46630E-03	145.896
2.46636E-03	144.878
2.46690E-03	135.729
2.46693E-03	135.222
2.46729E-03	129.753
2.46756E-03	125.658
2.46771E-03	123.597
2.46810E-03	118.247
2.46813E-03	117.871
2.46855E-03	112.615
2.46864E-03	111.49
2.46897E-03	107.717
2.46918E-03	105.32
2.46940E-03	103.123
2.46973E-03	99.6759
2.46982E-03	98.8129
2.47027E-03	94.5068
2.47045E-03	92.9231
2.47081E-03	89.762
2.47093E-03	88.7915
2.47135E-03	85.4006
2.47141E-03	84.9537
2.47189E-03	81.3841
2.47189E-03	81.3841
2.47237E-03	78.1041
2.47249E-03	77.2853
2.47285E-03	75.0302
2.47309E-03	73.5296
2.47357E-03	70.8229
2.47399E-03	68.4597
2.47429E-03	66.9631
2.47490E-03	63.9757
2.47490E-03	63.9757
2.47550E-03	61.3198
2.47580E-03	59.9939
2.47610E-03	58.8081
2.47670E-03	56.4404
2.47730E-03	54.3338
2.47774E-03	52.8088
2.47790E-03	52.2952
2.47877E-03	49.5918
2.47880E-03	49.5087
2.47946E-03	47.7035
2.47981E-03	46.7297
2.48016E-03	45.8573
2.48085E-03	44.1709
2.48087E-03	44.1209
2.48158E-03	42.5552
2.48188E-03	41.8733
2.48228E-03	41.0716
2.48280E-03	40.0297
2.48334E-03	39.042
2.48394E-03	37.9469
2.48440E-03	37.1941
2.48509E-03	36.073
2.48524E-03	35.839
2.48622E-03	34.393
2.48623E-03	34.3819
2.48720E-03	33.082
2.48737E-03	32.8506
2.48817E-03	31.891
2.48908E-03	30.8076
2.48915E-03	30.7369
2.49013E-03	29.7172
2.49080E-03	29.0201
2.49110E-03	28.7372
2.49208E-03	27.8416
2.49257E-03	27.3944
2.49310E-03	26.9692
2.49415E-03	26.1198
2.49437E-03	25.938
2.49520E-03	25.3467
2.49618E-03	24.6487
2.49625E-03	24.6008
2.49783E-03	23.5964
2.49798E-03	23.5009
2.49941E-03	22.6873
2.49978E-03	22.4735
2.50099E-03	21.8585
2.50166E-03	21.513
2.50234E-03	21.2029
2.50369E-03	20.5834
2.50504E-03	20.0369
2.50640E-03	19.491
2.50775E-03	19.0145
2.50910E-03	18.5386
2.50978E-03	18.3292
2.51181E-03	17.7017
2.51331E-03	17.293
2.51481E-03	16.8847
2.51556E-03	16.7049
2.51782E-03	16.1663
2.52007E-03	15.6899
2.52083E-03	15.5313
2.52233E-03	15.2551
2.52451E-03	14.8551
2.52518E-03	14.7311
2.52654E-03	14.5168
2.52857E-03	14.1957
2.52924E-03	14.0888
2.53059E-03	13.902
2.53330E-03	13.5289
2.53606E-03	13.1945
2.53747E-03	13.024
2.53888E-03	12.8762
2.54170E-03	12.5809
2.54311E-03	12.4334
2.54451E-03	12.3064
2.54714E-03	12.0695
2.54837E-03	11.9596
2.54959E-03	11.8659
2.55325E-03	11.5852
2.55569E-03	11.3982
2.55870E-03	11.2016
2.56170E-03	11.0051
2.56471E-03	10.8381
2.56772E-03	10.6712
2.57072E-03	10.5045
2.57523E-03	10.2957
2.57974E-03	10.0871
2.58425E-03	9.91027
2.58876E-03	9.7336
2.59327E-03	9.58179
2.59777E-03	9.4301
2.60228E-03	9.29893
2.60754E-03	9.14602
2.61318E-03	9.00519
2.61882E-03	8.86447
2.62483E-03	8.73521
2.63084E-03	8.60604
2.63685E-03	8.49765
2.64286E-03	8.38932
2.64887E-03	8.28106
2.65488E-03	8.19138
2.66090E-03	8.10175
2.66691E-03	8.01216
2.67292E-03	7.93809
2.67893E-03	7.86405
2.68795E-03	7.75306
2.69095E-03	7.71608
2.69697E-03	7.6548
2.70598E-03	7.56293
2.71500E-03	7.4711
2.72402E-03	7.39501
2.73304E-03	7.31895
2.74356E-03	7.23026
2.74807E-03	7.19226
2.75708E-03	7.12937
2.76911E-03	7.04556
2.78113E-03	6.96179
2.78714E-03	6.91992
2.79315E-03	6.88472
2.80518E-03	6.81436
2.81720E-03	6.74402
2.82922E-03	6.67371
2.83523E-03	6.63856
2.84125E-03	6.60849
2.85327E-03	6.54837
2.86529E-03	6.48827
2.87732E-03	6.4282
2.89084E-03	6.36065
2.90136E-03	6.30814
2.90738E-03	6.27816
2.91038E-03	6.26471
2.91639E-03	6.23784
2.92240E-03	6.21099
2.92691E-03	6.19087
2.93142E-03	6.17077
2.93546E-03	6.1528
2.93949E-03	6.13486
2.94219E-03	6.12292
2.94515E-03	6.10977
2.94812E-03	6.09666
2.95035E-03	6.08685
2.95258E-03	6.07707
2.95473E-03	6.06766
2.95674E-03	6.05894
2.95807E-03	6.05315
2.95941E-03	6.04739
2.96075E-03	6.04167
2.96208E-03	6.03598
2.96342E-03	6.03034
2.96442E-03	6.02615
2.96557E-03	6.02138
2.96639E-03	6.01804
2.96721E-03	6.01473
2.96802E-03	6.01147
2.96884E-03	6.00825
2.96966E-03	6.00509
2.97047E-03	6.002
2.97129E-03	5.99899
2.97187E-03	5.99691
2.97245E-03	5.99488
2.97303E-03	5.99292
2.97362E-03	5.99104
2.97420E-03	5.98924
2.97478E-03	5.98756
2.97522E-03	5.98637
2.97565E-03	5.98527
2.97613E-03	5.98416
2.97651E-03	5.98339
2.97688E-03	5.9827
2.97726E-03	5.98212
2.97764E-03	5.98166
2.97801E-03	5.98133
2.97832E-03	5.9812
2.97839E-03	5.98133
2.97876E-03	5.98229
2.97909E-03	5.98331
2.97936E-03	5.98431
2.97964E-03	5.98547
2.97991E-03	5.98681
2.98019E-03	5.98835
2.98046E-03	5.99014
2.98074E-03	5.99221
2.98094E-03	5.99397
2.98115E-03	5.99595
2.98135E-03	5.99807
2.98154E-03	6.00045
2.98174E-03	6.00314
2.98178E-03	6.00376
2.98194E-03	6.00745
2.98208E-03	6.0112
2.98223E-03	6.01526
2.98238E-03	6.01968
2.98252E-03	6.02453
2.98267E-03	6.02991
2.98280E-03	6.03509
2.98292E-03	6.04039
2.98303E-03	6.0463
2.98315E-03	6.05292
2.98323E-03	6.05781
2.98331E-03	6.06314
2.98339E-03	6.06896
2.98347E-03	6.07534
2.98351E-03	6.07885
2.98354E-03	6.08366
2.98362E-03	6.094
2.98370E-03	6.10517
2.98378E-03	6.11725
2.98386E-03	6.13038
2.98394E-03	6.1447
2.98401E-03	6.15881
2.98407E-03	6.1725
2.98414E-03	6.18727
2.98420E-03	6.20322
2.98426E-03	6.22047
2.98433E-03	6.23914
2.98439E-03	6.25859
2.98439E-03	6.25954
2.98445E-03	6.28586
2.98452E-03	6.31403
2.98458E-03	6.34422
2.98465E-03	6.3766
2.98471E-03	6.41136
2.98477E-03	6.4487
2.98484E-03	6.48881
2.98490E-03	6.53193
2.98492E-03	6.54439
2.98496E-03	6.58257
2.98502E-03	6.63165
2.98509E-03	6.70003
2.98517E-03	6.7737
2.98524E-03	6.85307
2.98531E-03	6.93285
2.98532E-03	6.93907
2.98539E-03	7.03867
2.98546E-03	7.14528
2.98554E-03	7.25928
2.98561E-03	7.37298
2.98561E-03	7.38168
2.98568E-03	7.5202
2.98576E-03	7.66741
2.98582E-03	7.80232
2.98590E-03	7.97808
2.98590E-03	7.9781
2.98598E-03	8.17562
2.98606E-03	8.38465
2.98613E-03	8.60552
2.98619E-03	8.78023
2.98621E-03	8.84141
2.98629E-03	9.09833
2.98637E-03	9.36765
2.98647E-03	9.73089
2.98649E-03	9.79615
2.98656E-03	10.0918
2.98665E-03	10.4718
2.98678E-03	11.0031
2.98678E-03	11.0075
2.98690E-03	11.576
2.98705E-03	12.3163
2.98707E-03	12.4037
2.98725E-03	13.3634
2.98769E-03	15.6817
2.98781E-03	16.2869
2.98790E-03	16.7605
2.98807E-03	17.5377
2.98812E-03	17.7763
2.98821E-03	18.1558
2.98830E-03	18.5039
2.98835E-03	18.6761
2.98845E-03	18.9783
2.98856E-03	19.2868
2.98861E-03	19.3975
2.98870E-03	19.5802
2.98882E-03	19.7433
2.98885E-03	19.7634
2.98895E-03	19.8258
2.98898E-03	19.8299
2.98900E-03	19.8296
2.98914E-03	19.7689
2.98919E-03	19.7117
2.98925E-03	19.6397
2.98938E-03	19.4133
2.98944E-03	19.2702
2.98948E-03	19.1758
2.98960E-03	18.8052
2.98963E-03	18.7077
2.98976E-03	18.2488
2.98985E-03	17.8801
2.98990E-03	17.6753
2.99005E-03	16.9528
2.99016E-03	16.4091
2.99023E-03	16.0516
2.99054E-03	14.4277
2.99082E-03	12.9266
2.99099E-03	12.0508
2.99102E-03	11.9107
2.99113E-03	11.365
2.99125E-03	10.8426
2.99131E-03	10.5747
2.99135E-03	10.4194
2.99145E-03	9.99787
2.99155E-03	9.60673
2.99155E-03	9.59755
2.99165E-03	9.23198
2.99176E-03	8.88785
2.99184E-03	8.64087
2.99185E-03	8.60405
2.99194E-03	8.35452
2.99202E-03	8.12
2.99209E-03	7.95369
2.99212E-03	7.87743
2.99216E-03	7.79982
2.99222E-03	7.65786
2.99229E-03	7.52331
2.99236E-03	7.39593
2.99241E-03	7.28877
2.99242E-03	7.27606
2.99249E-03	7.16837
2.99256E-03	7.05962
2.99261E-03	6.98522
2.99261E-03	6.98189
2.99267E-03	6.91261
2.99272E-03	6.8469
2.99278E-03	6.78459
2.99283E-03	6.7255
2.99288E-03	6.66949
2.99294E-03	6.61639
2.99299E-03	6.56603
2.99300E-03	6.55519
2.99305E-03	6.52233
2.99310E-03	6.48228
2.99315E-03	6.44454
2.99321E-03	6.40897
2.99326E-03	6.37543
2.99332E-03	6.3438
2.99337E-03	6.31396
2.99343E-03	6.28207
2.99350E-03	6.24871
2.99350E-03	6.24648
2.99357E-03	6.22235
2.99364E-03	6.19845
2.99370E-03	6.17645
2.99377E-03	6.15617
2.99384E-03	6.13746
2.99391E-03	6.12017
2.99398E-03	6.10416
2.99405E-03	6.0893
2.99412E-03	6.0755
2.99419E-03	6.06263
2.99425E-03	6.05061
2.99432E-03	6.03935
2.99434E-03	6.03708
2.99439E-03	6.03096
2.99446E-03	6.02379
2.99454E-03	6.01626
2.99463E-03	6.00855
2.99472E-03	6.00153
2.99480E-03	5.99511
2.99489E-03	5.98922
2.99498E-03	5.98378
2.99507E-03	5.97874
2.99520E-03	5.97182
2.99533E-03	5.96554
2.99547E-03	5.95978
2.99560E-03	5.95445
2.99573E-03	5.94949
2.99591E-03	5.94334
2.99608E-03	5.93764
2.99626E-03	5.93229
2.99644E-03	5.92725
2.99661E-03	5.92247
2.99685E-03	5.91643
2.99709E-03	5.91262
2.99732E-03	5.90909
2.99756E-03	5.9058
2.99779E-03	5.90271
2.99803E-03	5.89979
2.99826E-03	5.89704
2.99858E-03	5.89358
2.99889E-03	5.89033
2.99921E-03	5.88726
2.99952E-03	5.88434
2.99983E-03	5.88156
3.00015E-03	5.87891
3.00050E-03	5.87604
3.00089E-03	5.87299
3.00129E-03	5.87007
3.00168E-03	5.86725
3.00207E-03	5.86452
3.00246E-03	5.86188
3.00305E-03	5.85805
3.00362E-03	5.85448
3.00415E-03	5.85125
3.00468E-03	5.8481
3.00521E-03	5.84502
3.00592E-03	5.841
3.00662E-03	5.83708
3.00733E-03	5.83323
3.00804E-03	5.82944
3.00874E-03	5.82571
3.00965E-03	5.82102
3.01019E-03	5.81819
3.01129E-03	5.8126
3.01239E-03	5.80708
3.01349E-03	5.80163
3.01459E-03	5.79622
3.01569E-03	5.79085
3.01734E-03	5.78287
3.01888E-03	5.77548
3.02036E-03	5.76839
3.02184E-03	5.76135
3.02382E-03	5.75201
3.02580E-03	5.74273
3.02792E-03	5.73284
3.03004E-03	5.723
3.03216E-03	5.71321
3.03428E-03	5.70348
3.03640E-03	5.69381
3.03849E-03	5.68434
3.04057E-03	5.675
3.04195E-03	5.66883
3.04333E-03	5.6627
3.04472E-03	5.65662
3.04610E-03	5.6506
3.04749E-03	5.64465
3.04866E-03	5.63968
3.04962E-03	5.63567
3.05058E-03	5.63171
3.05153E-03	5.62781
3.05249E-03	5.62398
3.05345E-03	5.62024
3.05441E-03	5.61659
3.05537E-03	5.61305
3.05617E-03	5.6102
3.05681E-03	5.608
3.05745E-03	5.60587
3.05808E-03	5.60383
3.05872E-03	5.60189
3.05883E-03	5.60159
3.05936E-03	5.60133
3.06000E-03	5.60115
3.06064E-03	5.60112
3.06120E-03	5.60123
3.06168E-03	5.60145
3.06216E-03	5.6018
3.06264E-03	5.6023
3.06312E-03	5.60295
3.06360E-03	5.6038
3.06408E-03	5.60486
3.06455E-03	5.60617
3.06497E-03	5.60753
3.06531E-03	5.60885
3.06566E-03	5.61037
3.06601E-03	5.61211
3.06635E-03	5.6141
3.06650E-03	5.61506
3.06670E-03	5.6177
3.06704E-03	5.6226
3.06739E-03	5.62787
3.06770E-03	5.63288
3.06796E-03	5.63756
3.06823E-03	5.64255
3.06849E-03	5.64792
3.06876E-03	5.65371
3.06903E-03	5.65998
3.06927E-03	5.66612
3.06929E-03	5.66714
3.06956E-03	5.67794
3.06980E-03	5.6883
3.07001E-03	5.6981
3.07023E-03	5.70857
3.07044E-03	5.7198
3.07065E-03	5.73194
3.07081E-03	5.74175
3.07084E-03	5.7435
3.07097E-03	5.75568
3.07113E-03	5.77114
3.07129E-03	5.7876
3.07144E-03	5.80374
3.07156E-03	5.81784
3.07168E-03	5.83289
3.07180E-03	5.84905
3.07185E-03	5.85682
3.07192E-03	5.87009
3.07204E-03	5.89553
3.07216E-03	5.92281
3.07224E-03	5.9422
3.07232E-03	5.96268
3.07240E-03	5.98439
3.07248E-03	6.00749
3.07249E-03	6.0116
3.07256E-03	6.03776
3.07264E-03	6.0709
3.07271E-03	6.10301
3.07277E-03	6.13379
3.07284E-03	6.16625
3.07289E-03	6.19026
3.07291E-03	6.20253
3.07297E-03	6.24544
3.07304E-03	6.29058
3.07311E-03	6.33816
3.07315E-03	6.37333
3.07317E-03	6.39082
3.07324E-03	6.45205
3.07331E-03	6.51648
3.07337E-03	6.58438
3.07342E-03	6.63456
3.07344E-03	6.65898
3.07351E-03	6.74446
3.07357E-03	6.83443
3.07362E-03	6.90081
3.07364E-03	6.93249
3.07371E-03	7.04337
3.07377E-03	7.14799
3.07382E-03	7.24511
3.07382E-03	7.24512
3.07390E-03	7.4148
3.07398E-03	7.59455
3.07402E-03	7.68989
3.07406E-03	7.79516
3.07414E-03	8.01756
3.07422E-03	8.25265
3.07422E-03	8.25267
3.07430E-03	8.52099
3.07435E-03	8.70959
3.07438E-03	8.8098
3.07446E-03	9.1261
3.07449E-03	9.23699
3.07454E-03	9.47303
3.07459E-03	9.71865
3.07464E-03	9.94571
3.07467E-03	10.1125
3.07475E-03	10.5401
3.07479E-03	10.7713
3.07483E-03	11.0007
3.07491E-03	11.4957
3.07495E-03	11.7238
3.07499E-03	12.0282
3.07507E-03	12.5953
3.07510E-03	12.8114
3.07515E-03	13.2038
3.07523E-03	13.8459
3.07525E-03	14.041
3.07533E-03	14.7434
3.07538E-03	15.167
3.07544E-03	15.7074
3.07553E-03	16.6342
3.07554E-03	16.7289
3.07565E-03	17.8218
3.07569E-03	18.2433
3.07579E-03	19.367
3.07584E-03	19.9741
3.07594E-03	21.2696
3.07602E-03	22.1941
3.07610E-03	23.2796
3.07634E-03	26.3451
3.07638E-03	26.9056
3.07670E-03	31.1253
3.07676E-03	31.9423
3.07691E-03	33.7305
3.07701E-03	34.8779
3.07709E-03	35.7792
3.07719E-03	36.8014
3.07722E-03	37.155
3.07734E-03	38.2557
3.07737E-03	38.4662
3.07749E-03	39.3571
3.07753E-03	39.635
3.07762E-03	40.1272
3.07767E-03	40.377
3.07773E-03	40.6202
3.07783E-03	40.9517
3.07794E-03	41.1095
3.07800E-03	41.1554
3.07813E-03	41.0161
3.07817E-03	40.9433
3.07824E-03	40.7421
3.07833E-03	40.3701
3.07839E-03	40.084
3.07848E-03	39.588
3.07851E-03	39.3629
3.07865E-03	38.3417
3.07878E-03	37.1772
3.07884E-03	36.5472
3.07892E-03	35.6658
3.07903E-03	34.4741
3.07909E-03	33.7478
3.07928E-03	31.4219
3.07986E-03	23.7042
3.07992E-03	23.0208
3.08006E-03	21.2886
3.08013E-03	20.3873
3.08022E-03	19.386
3.08029E-03	18.541
3.08034E-03	17.956
3.08045E-03	16.83
3.08047E-03	16.6129
3.08059E-03	15.4805
3.08061E-03	15.2686
3.08070E-03	14.4326
3.08077E-03	13.8585
3.08078E-03	13.7708
3.08086E-03	13.1567
3.08093E-03	12.6047
3.08093E-03	12.5659
3.08101E-03	12.0238
3.08109E-03	11.502
3.08109E-03	11.5019
3.08116E-03	11.0726
3.08123E-03	10.6591
3.08125E-03	10.5452
3.08130E-03	10.278
3.08137E-03	9.91865
3.08141E-03	9.72136
3.08144E-03	9.58285
3.08151E-03	9.27323
3.08157E-03	9.0189
3.08158E-03	8.97954
3.08165E-03	8.71652
3.08172E-03	8.46505
3.08175E-03	8.33913
3.08179E-03	8.23448
3.08186E-03	8.00565
3.08192E-03	7.83469
3.08195E-03	7.75258
3.08198E-03	7.67816
3.08204E-03	7.53567
3.08210E-03	7.39915
3.08215E-03	7.29011
3.08216E-03	7.27037
3.08222E-03	7.15735
3.08228E-03	7.04928
3.08234E-03	6.94584
3.08235E-03	6.92933
3.08240E-03	6.85513
3.08246E-03	6.77014
3.08252E-03	6.68892
3.08255E-03	6.65006
3.08258E-03	6.6157
3.08264E-03	6.55025
3.08270E-03	6.4878
3.08276E-03	6.42814
3.08282E-03	6.37436
3.08283E-03	6.36612
3.08290E-03	6.3091
3.08298E-03	6.25528
3.08305E-03	6.20435
3.08309E-03	6.18019
3.08312E-03	6.15982
3.08320E-03	6.12144
3.08327E-03	6.08519
3.08334E-03	6.05084
3.08341E-03	6.01821
3.08348E-03	5.98853
3.08349E-03	5.98739
3.08356E-03	5.96379
3.08363E-03	5.94142
3.08374E-03	5.90994
3.08385E-03	5.88059
3.08396E-03	5.85306
3.08402E-03	5.84041
3.08406E-03	5.83308
3.08415E-03	5.81694
3.08429E-03	5.79429
3.08443E-03	5.77324
3.08457E-03	5.75351
3.08471E-03	5.73488
3.08482E-03	5.72139
3.08485E-03	5.71812
3.08499E-03	5.70518
3.08518E-03	5.68896
3.08536E-03	5.67373
3.08558E-03	5.65733
3.08575E-03	5.64421
3.08588E-03	5.63536
3.08593E-03	5.6325
3.08617E-03	5.62035
3.08641E-03	5.60895
3.08665E-03	5.59816
3.08689E-03	5.58792
3.08713E-03	5.57815
3.08737E-03	5.56879
3.08769E-03	5.55687
3.08801E-03	5.54551
3.08801E-03	5.54551
3.08833E-03	5.53791
3.08865E-03	5.53073
3.08897E-03	5.5239
3.08929E-03	5.51739
3.08961E-03	5.51116
3.08993E-03	5.50517
3.09035E-03	5.49751
3.09078E-03	5.49018
3.09121E-03	5.48314
3.09163E-03	5.47634
3.09206E-03	5.46976
3.09248E-03	5.46337
3.09291E-03	5.45714
3.09334E-03	5.45107
3.09334E-03	5.45107
3.09387E-03	5.44602
3.09440E-03	5.44114
3.09493E-03	5.43642
3.09547E-03	5.43184
3.09600E-03	5.42738
3.09653E-03	5.42302
3.09733E-03	5.41665
3.09802E-03	5.41127
3.09845E-03	5.40802
3.09930E-03	5.40164
3.10015E-03	5.39538
3.10100E-03	5.38924
3.10186E-03	5.3832
3.10271E-03	5.37724
3.10356E-03	5.37136
3.10441E-03	5.36554
3.10564E-03	5.35727
3.10686E-03	5.34909
3.10809E-03	5.341
3.10931E-03	5.33297
3.11054E-03	5.32501
3.11176E-03	5.31709
3.11360E-03	5.30529
3.11464E-03	5.29866
3.11494E-03	5.29677
3.11641E-03	5.28775
3.11860E-03	5.2743
3.12080E-03	5.26091
3.12300E-03	5.24758
3.12519E-03	5.23429
3.12755E-03	5.22007
3.13080E-03	5.20053
3.13405E-03	5.18105
3.13729E-03	5.1616
3.14179E-03	5.13471
3.14467E-03	5.11756
3.15042E-03	5.0833
3.15468E-03	5.05796
3.16137E-03	5.01822
3.16806E-03	4.97852
3.17534E-03	4.92934
3.18263E-03	4.88019
3.18940E-03	4.83453
3.19956E-03	4.76608
3.20295E-03	4.74329
3.20972E-03	4.69162
3.21824E-03	4.62668
3.22676E-03	4.56178
3.23528E-03	4.49694
3.24380E-03	4.42422
3.25154E-03	4.35823
3.25927E-03	4.29231
3.26706E-03	4.21822
3.27485E-03	4.1442
3.28315E-03	4.06545
3.28592E-03	4.03922
3.28950E-03	4.0015
3.29667E-03	3.92613
3.30403E-03	3.84884
3.30781E-03	3.80922
3.31536E-03	3.72241
3.32128E-03	3.65449
3.32720E-03	3.58668
3.33280E-03	3.52266
3.33467E-03	3.50137
3.33840E-03	3.45718
3.34356E-03	3.39638
3.34781E-03	3.34635
3.35207E-03	3.29651
3.35490E-03	3.26343
3.35774E-03	3.23052
3.35986E-03	3.20599
3.36199E-03	3.18168
3.36341E-03	3.16565
3.36483E-03	3.14985
3.36586E-03	3.13851
3.36656E-03	3.13109
3.36725E-03	3.12384
3.36759E-03	3.12032
3.36794E-03	3.11751
3.36846E-03	3.1135
3.36898E-03	3.10973
3.36932E-03	3.10741
3.36967E-03	3.1053
3.36993E-03	3.10392
3.37019E-03	3.10278
3.37043E-03	3.10201
3.37065E-03	3.10168
3.37080E-03	3.10172
3.37095E-03	3.10203
3.37110E-03	3.10269
3.37121E-03	3.10345
3.37132E-03	3.1045
3.37143E-03	3.10589
3.37154E-03	3.10767
3.37165E-03	3.10993
3.37176E-03	3.11275
3.37183E-03	3.11499
3.37190E-03	3.11754
3.37198E-03	3.12046
3.37205E-03	3.12377
3.37212E-03	3.12751
3.37220E-03	3.13244
3.37227E-03	3.13789
3.37234E-03	3.14392
3.37242E-03	3.15059
3.37249E-03	3.15796
3.37256E-03	3.16608
3.37264E-03	3.17503
3.37271E-03	3.18487
3.37278E-03	3.1952
3.37284E-03	3.20634
3.37291E-03	3.21833
3.37297E-03	3.23124
3.37304E-03	3.24513
3.37310E-03	3.26005
3.37317E-03	3.27606
3.37323E-03	3.29322
3.37330E-03	3.3116
3.37336E-03	3.33125
3.37340E-03	3.34508
3.37349E-03	3.37668
3.37358E-03	3.41086
3.37366E-03	3.44776
3.37375E-03	3.48748
3.37384E-03	3.53016
3.37392E-03	3.57589
3.37401E-03	3.62474
3.37410E-03	3.67679
3.37418E-03	3.73485
3.37427E-03	3.79615
3.37435E-03	3.86071
3.37448E-03	3.96353
3.37461E-03	4.07328
3.37474E-03	4.18952
3.37484E-03	4.2792
3.37488E-03	4.32168
3.37504E-03	4.48269
3.37535E-03	4.80042
3.37567E-03	5.14498
3.37588E-03	5.35259
3.37606E-03	5.51857
3.37606E-03	5.51858
3.37621E-03	5.64266
3.37635E-03	5.73708
3.37648E-03	5.81492
3.37659E-03	5.86779
3.37663E-03	5.88717
3.37676E-03	5.92509
3.37689E-03	5.95026
3.37694E-03	5.95354
3.37700E-03	5.95531
3.37714E-03	5.94116
3.37728E-03	5.90845
3.37740E-03	5.86636
3.37741E-03	5.86184
3.37752E-03	5.80484
3.37765E-03	5.72472
3.37779E-03	5.62795
3.37791E-03	5.52373
3.37794E-03	5.50026
3.37812E-03	5.33124
3.37833E-03	5.12022
3.37889E-03	4.51618
3.37908E-03	4.31823
3.37921E-03	4.19173
3.37937E-03	4.04509
3.37944E-03	3.97556
3.37947E-03	3.9531
3.37957E-03	3.86763
3.37968E-03	3.78667
3.37978E-03	3.71033
3.37988E-03	3.63865
3.37999E-03	3.57162
3.38008E-03	3.51673
3.38009E-03	3.50934
3.38016E-03	3.47438
3.38023E-03	3.43489
3.38031E-03	3.39779
3.38039E-03	3.363
3.38047E-03	3.33044
3.38054E-03	3.30002
3.38062E-03	3.27163
3.38070E-03	3.24517
3.38078E-03	3.22054
3.38086E-03	3.19765
3.38087E-03	3.1941
3.38093E-03	3.17796
3.38101E-03	3.1601
3.38109E-03	3.14367
3.38117E-03	3.12855
3.38124E-03	3.11466
3.38132E-03	3.1019
3.38140E-03	3.09019
3.38148E-03	3.07943
3.38155E-03	3.06955
3.38163E-03	3.06048
3.38171E-03	3.05213
3.38179E-03	3.04446
3.38187E-03	3.03738
3.38190E-03	3.03412
3.38194E-03	3.03138
3.38202E-03	3.02639
3.38210E-03	3.02185
3.38218E-03	3.01771
3.38225E-03	3.01392
3.38237E-03	3.00883
3.38249E-03	3.00435
3.38260E-03	3.00038
3.38272E-03	2.99684
3.38284E-03	2.99366
3.38299E-03	2.98988
3.38315E-03	2.98652
3.38330E-03	2.98348
3.38353E-03	2.97939
3.38377E-03	2.97572
3.38403E-03	2.97197
3.38441E-03	2.96681
3.38480E-03	2.96201
3.38532E-03	2.95597
3.38584E-03	2.95023
3.38584E-03	2.95023
3.38662E-03	2.9443
3.38739E-03	2.93868
3.38828E-03	2.93253
3.38938E-03	2.92515
3.39085E-03	2.91562
3.39171E-03	2.91023
3.39306E-03	2.90568
3.39526E-03	2.89859
3.39766E-03	2.89124
3.39821E-03	2.89113
3.40063E-03	2.89099
3.40111E-03	2.89244
3.40396E-03	2.90142
3.40527E-03	2.90569
3.40682E-03	2.91682
3.40837E-03	2.92814
3.40968E-03	2.9428
3.41147E-03	2.96303
3.41254E-03	2.98002
3.41445E-03	3.01052
3.41540E-03	3.03072
3.41731E-03	3.07144
3.41826E-03	3.09757
3.42017E-03	3.15019
3.42112E-03	3.18337
3.42302E-03	3.25015
3.42398E-03	3.29061
3.42517E-03	3.34148
3.42684E-03	3.42502
3.42731E-03	3.449
3.42898E-03	3.54709
3.42946E-03	3.57523
3.43113E-03	3.68997
3.43160E-03	3.72288
3.43327E-03	3.85682
3.43375E-03	3.89524
3.43541E-03	4.05136
3.43589E-03	4.09614
3.43756E-03	4.27795
3.43803E-03	4.33009
3.43946E-03	4.50685
3.43970E-03	4.53932
3.44089E-03	4.70219
3.44185E-03	4.84594
3.44232E-03	4.91806
3.44375E-03	5.15744
3.44399E-03	5.20162
3.44518E-03	5.42327
3.44605E-03	5.60118
3.44661E-03	5.71809
3.44791E-03	6.01307
3.44792E-03	6.01677
3.44907E-03	6.30277
3.44980E-03	6.5008
3.45023E-03	6.61833
3.45139E-03	6.9626
3.45167E-03	7.05403
3.45255E-03	7.33871
3.45355E-03	7.69139
3.45371E-03	7.74946
3.45488E-03	8.19891
3.45543E-03	8.43189
3.45604E-03	8.69078
3.45710E-03	9.18065
3.45727E-03	9.26553
3.45806E-03	9.66101
3.45849E-03	9.89762
3.45902E-03	10.1798
3.45972E-03	10.5924
3.45997E-03	10.7406
3.46093E-03	11.3477
3.46095E-03	11.3579
3.46189E-03	12.0064
3.46218E-03	12.2171
3.46285E-03	12.7215
3.46340E-03	13.1676
3.46381E-03	13.4985
3.46463E-03	14.2173
3.46468E-03	14.2644
3.46572E-03	15.2612
3.46586E-03	15.399
3.46704E-03	16.6616
3.46715E-03	16.7871
3.46783E-03	17.5836
3.46858E-03	18.5303
3.46861E-03	18.5755
3.46940E-03	19.6451
3.46953E-03	19.8372
3.47019E-03	20.7992
3.47048E-03	21.2774
3.47125E-03	22.5035
3.47144E-03	22.8427
3.47225E-03	24.2867
3.47239E-03	24.5685
3.47325E-03	26.2618
3.47330E-03	26.3661
3.47415E-03	28.2454
3.47425E-03	28.4545
3.47501E-03	30.3124
3.47525E-03	30.8938
3.47587E-03	32.5722
3.47620E-03	33.4773
3.47673E-03	35.0473
3.47706E-03	36.0479
3.47758E-03	37.7781
3.47792E-03	38.8807
3.47844E-03	40.7909
3.47877E-03	42.0082
3.47930E-03	44.121
3.47963E-03	45.4675
3.48006E-03	47.3831
3.48049E-03	49.3017
3.48106E-03	52.1251
3.48128E-03	53.1859
3.48206E-03	57.4671
3.48206E-03	57.4671
3.48273E-03	61.4777
3.48285E-03	62.1948
3.48340E-03	65.837
3.48364E-03	67.4225
3.48406E-03	70.5792
3.48442E-03	73.2131
3.48473E-03	75.7343
3.48516E-03	79.23
3.48554E-03	82.6507
3.48587E-03	85.6482
3.48626E-03	89.4175
3.48659E-03	92.72
3.48697E-03	96.876
3.48730E-03	100.518
3.48769E-03	105.103
3.48802E-03	109.12
3.48840E-03	114.171
3.48871E-03	118.28
3.48912E-03	124.162
3.48935E-03	127.627
3.48983E-03	135.186
3.49000E-03	137.835
3.49054E-03	147.321
3.49064E-03	148.973
3.49126E-03	160.66
3.49128E-03	161.11
3.49193E-03	174.31
3.49197E-03	175.375
3.49264E-03	190.291
3.49269E-03	191.45
3.49336E-03	207.702
3.49355E-03	212.725
3.49407E-03	226.553
3.49440E-03	235.997
3.49479E-03	246.801
3.49555E-03	269.961
3.49574E-03	275.755
3.49699E-03	316.28
3.49791E-03	346.599
3.49874E-03	373.838
3.49888E-03	378.226
3.49949E-03	396.849
3.49953E-03	397.986
3.50011E-03	414.137
3.50018E-03	415.886
3.50083E-03	431.706
3.50084E-03	432.053
3.50139E-03	443.166
3.50148E-03	444.507
3.50194E-03	451.98
3.50212E-03	454.064
3.50249E-03	458.291
3.50260E-03	459
3.50307E-03	462.058
3.50314E-03	462.219
3.50346E-03	462.945
3.50367E-03	462.542
3.50402E-03	461.866
3.50421E-03	460.62
3.50458E-03	458.106
3.50474E-03	456.327
3.50515E-03	451.853
3.50546E-03	447.15
3.50571E-03	443.373
3.50605E-03	436.821
3.50646E-03	429.125
3.50665E-03	424.841
3.50721E-03	412.238
3.50784E-03	396.236
3.50834E-03	383.699
3.50993E-03	341
3.51080E-03	317.67
3.51080E-03	317.67
3.51165E-03	295.837
3.51180E-03	292.202
3.51251E-03	275.21
3.51280E-03	268.42
3.51337E-03	255.921
3.51380E-03	246.558
3.51423E-03	238.03
3.51480E-03	226.675
3.51508E-03	221.539
3.51580E-03	208.719
3.51594E-03	206.41
3.51680E-03	192.575
3.51680E-03	192.575
3.51766E-03	180.162
3.51780E-03	178.096
3.51852E-03	168.822
3.51880E-03	165.118
3.51937E-03	158.466
3.51980E-03	153.483
3.52004E-03	150.964
3.52056E-03	145.427
3.52071E-03	144.041
3.52137E-03	137.578
3.52142E-03	137.117
3.52204E-03	131.634
3.52228E-03	129.527
3.52271E-03	126.053
3.52314E-03	122.582
3.52338E-03	120.814
3.52399E-03	116.22
3.52438E-03	113.622
3.52485E-03	110.379
3.52509E-03	108.886
3.52571E-03	105.008
3.52585E-03	104.199
3.52662E-03	99.8869
3.52700E-03	97.733
3.52738E-03	95.7897
3.52795E-03	92.8775
3.52814E-03	91.9858
3.52890E-03	88.423
3.52928E-03	86.8157
3.53033E-03	82.401
3.53043E-03	82.0449
3.53129E-03	78.8439
3.53176E-03	77.0672
3.53224E-03	75.484
3.53319E-03	72.3205
3.53319E-03	72.3205
3.53414E-03	69.4923
3.53462E-03	68.0794
3.53510E-03	66.8197
3.53605E-03	64.3024
3.53626E-03	63.7366
3.53748E-03	60.8879
3.53791E-03	59.8834
3.53843E-03	58.7879
3.53955E-03	56.4492
3.53955E-03	56.4492
3.54067E-03	54.3557
3.54120E-03	53.3765
3.54179E-03	52.3747
3.54284E-03	50.613
3.54291E-03	50.5057
3.54459E-03	47.9875
3.54496E-03	47.4344
3.54627E-03	45.6727
3.54653E-03	45.3207
3.54739E-03	44.2895
3.54870E-03	42.7151
3.54889E-03	42.4863
3.55001E-03	41.3038
3.55125E-03	39.9966
3.55132E-03	39.9298
3.55329E-03	38.096
3.55361E-03	37.7962
3.55525E-03	36.4292
3.55597E-03	35.8354
3.55722E-03	34.9074
3.55847E-03	33.9801
3.55871E-03	33.8222
3.56038E-03	32.7178
3.56097E-03	32.3237
3.56204E-03	31.6863
3.56347E-03	30.8372
3.56371E-03	30.7095
3.56538E-03	29.8163
3.56597E-03	29.4975
3.56788E-03	28.5877
3.56931E-03	27.906
3.57038E-03	27.4547
3.57265E-03	26.5028
3.57288E-03	26.4138
3.57539E-03	25.4802
3.57598E-03	25.2581
3.57789E-03	24.6234
3.57932E-03	24.1477
3.58039E-03	23.8274
3.58265E-03	23.1518
3.58289E-03	23.0891
3.58539E-03	22.4322
3.58766E-03	21.8383
3.58789E-03	21.7842
3.59040E-03	21.2168
3.59266E-03	20.7037
3.59290E-03	20.6566
3.59623E-03	19.9975
3.59766E-03	19.7153
3.59885E-03	19.5085
3.60171E-03	19.0125
3.60267E-03	18.8473
3.60457E-03	18.5558
3.60743E-03	18.1189
3.60767E-03	18.0825
3.61124E-03	17.5947
3.61279E-03	17.3835
3.61482E-03	17.1411
3.61815E-03	16.7421
3.61970E-03	16.5569
3.62149E-03	16.3718
3.62482E-03	16.0265
3.62667E-03	15.8354
3.62828E-03	15.69
3.63185E-03	15.367
3.63370E-03	15.2002
3.63542E-03	15.063
3.63900E-03	14.779
3.64078E-03	14.6371
3.64436E-03	14.3859
3.64793E-03	14.1349
3.64972E-03	14.0257
3.65508E-03	13.6983
3.65806E-03	13.5166
3.66044E-03	13.3915
3.66580E-03	13.1102
3.66818E-03	12.9852
3.67116E-03	12.8502
3.67652E-03	12.6073
3.67891E-03	12.4993
3.68188E-03	12.3845
3.68724E-03	12.178
3.69260E-03	11.9715
3.69320E-03	11.9486
3.69797E-03	11.7939
3.70243E-03	11.6489
3.70690E-03	11.504
3.70750E-03	11.4847
3.71085E-03	11.3928
3.71375E-03	11.3133
3.71665E-03	11.2338
3.71762E-03	11.2074
3.71941E-03	11.1586
3.72119E-03	11.1099
3.72239E-03	11.0775
3.72358E-03	11.0451
3.72387E-03	11.0371
3.72477E-03	11.0168
3.72566E-03	10.9967
3.72656E-03	10.9766
3.72715E-03	10.9633
3.72767E-03	10.9517
3.72819E-03	10.9402
3.72871E-03	10.9288
3.72924E-03	10.9175
3.72963E-03	10.9091
3.73002E-03	10.9008
3.73041E-03	10.8926
3.73067E-03	10.8873
3.73093E-03	10.882
3.73119E-03	10.8768
3.73139E-03	10.8729
3.73161E-03	10.8688
3.73183E-03	10.8648
3.73198E-03	10.8623
3.73212E-03	10.8599
3.73227E-03	10.8577
3.73241E-03	10.8556
3.73252E-03	10.8542
3.73263E-03	10.8529
3.73274E-03	10.8518
3.73285E-03	10.8509
3.73296E-03	10.8503
3.73307E-03	10.8499
3.73314E-03	10.8499
3.73321E-03	10.85
3.73329E-03	10.8503
3.73336E-03	10.8508
3.73343E-03	10.8515
3.73351E-03	10.8525
3.73358E-03	10.8538
3.73365E-03	10.8554
3.73372E-03	10.857
3.73378E-03	10.859
3.73384E-03	10.8612
3.73391E-03	10.8638
3.73397E-03	10.8668
3.73404E-03	10.8702
3.73410E-03	10.874
3.73417E-03	10.8783
3.73423E-03	10.883
3.73429E-03	10.8883
3.73436E-03	10.8942
3.73442E-03	10.9007
3.73449E-03	10.9079
3.73455E-03	10.9158
3.73461E-03	10.9238
3.73461E-03	10.9245
3.73468E-03	10.9351
3.73474E-03	10.9466
3.73481E-03	10.959
3.73487E-03	10.9724
3.73494E-03	10.9867
3.73500E-03	11.0022
3.73508E-03	11.0231
3.73514E-03	11.0398
3.73523E-03	11.0667
3.73530E-03	11.0886
3.73532E-03	11.0967
3.73541E-03	11.1315
3.73550E-03	11.169
3.73559E-03	11.2094
3.73567E-03	11.2528
3.73576E-03	11.2994
3.73585E-03	11.3492
3.73594E-03	11.4022
3.73606E-03	11.4749
3.73614E-03	11.5321
3.73627E-03	11.6235
3.73639E-03	11.7214
3.73652E-03	11.8256
3.73664E-03	11.9356
3.73677E-03	12.0509
3.73678E-03	12.0589
3.73696E-03	12.2351
3.73730E-03	12.5798
3.73761E-03	12.9013
3.73782E-03	13.0965
3.73800E-03	13.2588
3.73815E-03	13.3835
3.73832E-03	13.5043
3.73846E-03	13.5863
3.73862E-03	13.6599
3.73863E-03	13.6635
3.73874E-03	13.6956
3.73875E-03	13.697
3.73889E-03	13.7156
3.73900E-03	13.7172
3.73915E-03	13.7001
3.73929E-03	13.6666
3.73941E-03	13.6212
3.73952E-03	13.5708
3.73965E-03	13.4955
3.73981E-03	13.3884
3.73983E-03	13.3673
3.73997E-03	13.2556
3.74014E-03	13.0943
3.74035E-03	12.8874
3.74066E-03	12.5625
3.74100E-03	12.1947
3.74121E-03	11.9812
3.74138E-03	11.8124
3.74152E-03	11.6847
3.74164E-03	11.581
3.74177E-03	11.4771
3.74189E-03	11.3798
3.74198E-03	11.3187
3.74203E-03	11.2838
3.74206E-03	11.2619
3.74215E-03	11.2102
3.74223E-03	11.1615
3.74232E-03	11.1133
3.74241E-03	11.0683
3.74250E-03	11.0262
3.74258E-03	10.9871
3.74267E-03	10.9506
3.74276E-03	10.9168
3.74285E-03	10.8855
3.74291E-03	10.8659
3.74297E-03	10.8473
3.74303E-03	10.8297
3.74308E-03	10.813
3.74314E-03	10.7972
3.74321E-03	10.7791
3.74328E-03	10.7642
3.74334E-03	10.75
3.74340E-03	10.7367
3.74347E-03	10.7241
3.74353E-03	10.7123
3.74359E-03	10.7011
3.74366E-03	10.6906
3.74371E-03	10.6819
3.74372E-03	10.6808
3.74378E-03	10.673
3.74385E-03	10.6657
3.74391E-03	10.6588
3.74397E-03	10.6525
3.74404E-03	10.6465
3.74410E-03	10.6409
3.74416E-03	10.6356
3.74422E-03	10.6307
3.74429E-03	10.6261
3.74435E-03	10.6217
3.74443E-03	10.6163
3.74452E-03	10.6113
3.74460E-03	10.6069
3.74468E-03	10.6028
3.74476E-03	10.5989
3.74484E-03	10.5953
3.74492E-03	10.5919
3.74500E-03	10.5886
3.74508E-03	10.5856
3.74520E-03	10.5812
3.74532E-03	10.5771
3.74544E-03	10.5733
3.74556E-03	10.5696
3.74568E-03	10.5661
3.74580E-03	10.5628
3.74596E-03	10.5584
3.74612E-03	10.5543
3.74628E-03	10.5502
3.74652E-03	10.5443
3.74676E-03	10.5386
3.74700E-03	10.533
3.74721E-03	10.5281
3.74748E-03	10.5221
3.74788E-03	10.5131
3.74829E-03	10.5043
3.74869E-03	10.4956
3.74909E-03	10.4869
3.74950E-03	10.4784
3.75004E-03	10.4671
3.75058E-03	10.4558
3.75111E-03	10.4447
3.75192E-03	10.428
3.75273E-03	10.4115
3.75354E-03	10.395
3.75461E-03	10.3731
3.75569E-03	10.3512
3.75677E-03	10.3295
3.75838E-03	10.2969
3.75892E-03	10.286
3.76000E-03	10.2679
3.76242E-03	10.227
3.76484E-03	10.1862
3.76807E-03	10.132
3.77130E-03	10.0777
3.77655E-03	9.98971
3.78019E-03	9.92881
3.78200E-03	9.90319
3.78746E-03	9.82639
3.79408E-03	9.73313
3.80070E-03	9.63992
3.80512E-03	9.5778
3.81177E-03	9.49955
3.81843E-03	9.42134
3.82426E-03	9.35285
3.83009E-03	9.28441
3.83398E-03	9.23881
3.83456E-03	9.2332
3.83790E-03	9.20093
3.84123E-03	9.16871
3.84373E-03	9.14459
3.84623E-03	9.12051
3.84790E-03	9.10449
3.84959E-03	9.08831
3.85127E-03	9.07218
3.85240E-03	9.06147
3.85352E-03	9.0508
3.85465E-03	9.04018
3.85549E-03	9.03225
3.85634E-03	9.02437
3.85723E-03	9.01615
3.85787E-03	9.01018
3.85852E-03	9.00427
3.85917E-03	8.99841
3.85982E-03	8.99263
3.86030E-03	8.98835
3.86079E-03	8.98412
3.86128E-03	8.97996
3.86176E-03	8.97589
3.86209E-03	8.97323
3.86243E-03	8.97048
3.86277E-03	8.9678
3.86311E-03	8.9652
3.86345E-03	8.96269
3.86379E-03	8.96029
3.86405E-03	8.95857
3.86430E-03	8.95694
3.86456E-03	8.95542
3.86481E-03	8.95403
3.86505E-03	8.95288
3.86523E-03	8.95212
3.86541E-03	8.95149
3.86559E-03	8.95102
3.86577E-03	8.95073
3.86589E-03	8.95066
3.86601E-03	8.95072
3.86613E-03	8.95093
3.86625E-03	8.95131
3.86637E-03	8.95191
3.86649E-03	8.95275
3.86658E-03	8.95358
3.86666E-03	8.9546
3.86677E-03	8.95603
3.86685E-03	8.95748
3.86694E-03	8.95918
3.86700E-03	8.96059
3.86702E-03	8.96133
3.86711E-03	8.96416
3.86719E-03	8.96735
3.86728E-03	8.97098
3.86734E-03	8.97402
3.86741E-03	8.97734
3.86747E-03	8.981
3.86753E-03	8.985
3.86760E-03	8.98939
3.86766E-03	8.99419
3.86768E-03	8.99559
3.86773E-03	9.00011
3.86779E-03	9.00677
3.86785E-03	9.01395
3.86792E-03	9.02171
3.86798E-03	9.03009
3.86805E-03	9.03913
3.86809E-03	9.04555
3.86816E-03	9.05654
3.86823E-03	9.06845
3.86829E-03	9.08136
3.86836E-03	9.09533
3.86843E-03	9.11046
3.86850E-03	9.12682
3.86857E-03	9.14449
3.86863E-03	9.16355
3.86870E-03	9.18412
3.86877E-03	9.20626
3.86884E-03	9.23007
3.86891E-03	9.25566
3.86898E-03	9.28311
3.86898E-03	9.28311
3.86904E-03	9.31526
3.86911E-03	9.34947
3.86918E-03	9.38582
3.86925E-03	9.42569
3.86932E-03	9.46804
3.86939E-03	9.51298
3.86946E-03	9.5606
3.86956E-03	9.62841
3.86965E-03	9.70135
3.86974E-03	9.77956
3.86984E-03	9.86319
3.86993E-03	9.95231
3.86993E-03	9.95231
3.87005E-03	10.0756
3.87016E-03	10.2073
3.87028E-03	10.3473
3.87039E-03	10.4954
3.87051E-03	10.6511
3.87066E-03	10.8761
3.87084E-03	11.1455
3.87102E-03	11.4275
3.87107E-03	11.506
3.87157E-03	12.3098
3.87178E-03	12.6358
3.87196E-03	12.8993
3.87213E-03	13.1118
3.87226E-03	13.2678
3.87232E-03	13.3313
3.87241E-03	13.4096
3.87253E-03	13.5032
3.87267E-03	13.588
3.87281E-03	13.6454
3.87294E-03	13.671
3.87295E-03	13.6724
3.87300E-03	13.6719
3.87315E-03	13.648
3.87329E-03	13.5984
3.87341E-03	13.5301
3.87352E-03	13.4538
3.87366E-03	13.3394
3.87382E-03	13.1631
3.87396E-03	12.9836
3.87413E-03	12.7475
3.87434E-03	12.4391
3.87463E-03	11.9651
3.87469E-03	11.8761
3.87504E-03	11.3011
3.87522E-03	11.0189
3.87540E-03	10.7495
3.87553E-03	10.5548
3.87565E-03	10.3985
3.87576E-03	10.2501
3.87586E-03	10.1254
3.87588E-03	10.1105
3.87599E-03	9.98441
3.87607E-03	9.90502
3.87616E-03	9.81303
3.87626E-03	9.72655
3.87635E-03	9.64547
3.87644E-03	9.56968
3.87654E-03	9.49897
3.87661E-03	9.44919
3.87668E-03	9.40208
3.87672E-03	9.3778
3.87675E-03	9.35897
3.87682E-03	9.32005
3.87689E-03	9.28457
3.87696E-03	9.25125
3.87702E-03	9.21999
3.87709E-03	9.19068
3.87716E-03	9.16324
3.87723E-03	9.13757
3.87730E-03	9.11356
3.87737E-03	9.09114
3.87743E-03	9.07021
3.87750E-03	9.05067
3.87757E-03	9.03245
3.87764E-03	9.01546
3.87771E-03	8.99961
3.87777E-03	8.98483
3.87784E-03	8.97105
3.87791E-03	8.9582
3.87791E-03	8.9582
3.87798E-03	8.94873
3.87804E-03	8.93997
3.87810E-03	8.93186
3.87817E-03	8.92435
3.87823E-03	8.9174
3.87830E-03	8.91096
3.87836E-03	8.90501
3.87842E-03	8.89949
3.87849E-03	8.89437
3.87855E-03	8.88964
3.87862E-03	8.88524
3.87868E-03	8.88115
3.87874E-03	8.87735
3.87881E-03	8.87382
3.87889E-03	8.86948
3.87898E-03	8.86551
3.87906E-03	8.86189
3.87915E-03	8.85856
3.87923E-03	8.85549
3.87934E-03	8.85211
3.87943E-03	8.8494
3.87951E-03	8.84687
3.87960E-03	8.84451
3.87969E-03	8.8423
3.87981E-03	8.83955
3.87993E-03	8.83699
3.88005E-03	8.8346
3.88017E-03	8.83234
3.88035E-03	8.82916
3.88053E-03	8.82619
3.88071E-03	8.82338
3.88089E-03	8.8207
3.88107E-03	8.81813
3.88127E-03	8.8153
3.88153E-03	8.81189
3.88178E-03	8.8086
3.88204E-03	8.80542
3.88221E-03	8.80334
3.88255E-03	8.79928
3.88289E-03	8.79534
3.88323E-03	8.79148
3.88357E-03	8.7877
3.88391E-03	8.78399
3.88440E-03	8.77879
3.88489E-03	8.77369
3.88537E-03	8.76867
3.88586E-03	8.76371
3.88634E-03	8.75881
3.88683E-03	8.75395
3.88748E-03	8.74754
3.88813E-03	8.74118
3.88877E-03	8.73487
3.88966E-03	8.7263
3.89046E-03	8.71861
3.89051E-03	8.71828
3.89135E-03	8.71177
3.89248E-03	8.70314
3.89360E-03	8.69456
3.89473E-03	8.68602
3.89585E-03	8.67751
3.89754E-03	8.66479
3.89897E-03	8.65404
3.90071E-03	8.64102
3.90245E-03	8.62803
3.90506E-03	8.60857
3.90767E-03	8.58916
3.91028E-03	8.56977
3.91372E-03	8.54425
3.91712E-03	8.51905
3.92052E-03	8.49388
3.92561E-03	8.45615
3.92999E-03	8.42383
3.93436E-03	8.39154
3.93749E-03	8.37174
3.94063E-03	8.35198
3.94298E-03	8.33718
3.94533E-03	8.32241
3.94744E-03	8.30923
3.94904E-03	8.29919
3.95065E-03	8.28918
3.95173E-03	8.28253
3.95280E-03	8.27592
3.95387E-03	8.26934
3.95468E-03	8.26444
3.95548E-03	8.25957
3.95606E-03	8.2561
3.95664E-03	8.25266
3.95721E-03	8.24925
3.95779E-03	8.24588
3.95837E-03	8.24255
3.95880E-03	8.2401
3.95923E-03	8.23768
3.95967E-03	8.23532
3.96010E-03	8.23301
3.96047E-03	8.23109
3.96084E-03	8.22923
3.96112E-03	8.22789
3.96140E-03	8.22661
3.96168E-03	8.22539
3.96196E-03	8.22426
3.96214E-03	8.22356
3.96233E-03	8.22292
3.96251E-03	8.22235
3.96270E-03	8.22188
3.96284E-03	8.22159
3.96298E-03	8.22139
3.96312E-03	8.22127
3.96322E-03	8.22126
3.96333E-03	8.22132
3.96343E-03	8.22146
3.96353E-03	8.2217
3.96364E-03	8.22205
3.96374E-03	8.22253
3.96384E-03	8.22315
3.96395E-03	8.22394
3.96402E-03	8.22467
3.96410E-03	8.22552
3.96418E-03	8.228
3.96426E-03	8.23063
3.96433E-03	8.23343
3.96441E-03	8.23642
3.96449E-03	8.23962
3.96457E-03	8.24304
3.96464E-03	8.24671
3.96472E-03	8.25066
3.96479E-03	8.25462
3.96486E-03	8.25886
3.96494E-03	8.26342
3.96501E-03	8.26831
3.96508E-03	8.27357
3.96515E-03	8.27923
3.96523E-03	8.28531
3.96530E-03	8.29186
3.96537E-03	8.2989
3.96544E-03	8.30647
3.96551E-03	8.31461
3.96559E-03	8.32335
3.96566E-03	8.33275
3.96573E-03	8.34282
3.96577E-03	8.349
3.96580E-03	8.35504
3.96588E-03	8.3699
3.96595E-03	8.38673
3.96603E-03	8.40455
3.96611E-03	8.4234
3.96618E-03	8.44334
3.96626E-03	8.46441
3.96634E-03	8.48668
3.96642E-03	8.51017
3.96649E-03	8.53493
3.96653E-03	8.54884
3.96657E-03	8.56323
3.96667E-03	8.60643
3.96678E-03	8.65445
3.96687E-03	8.69289
3.96695E-03	8.73297
3.96707E-03	8.79614
3.96720E-03	8.86295
3.96732E-03	8.93333
3.96746E-03	9.02005
3.96752E-03	9.05855
3.96760E-03	9.11041
3.96777E-03	9.23181
3.96801E-03	9.40677
3.96856E-03	9.81806
3.96878E-03	9.97112
3.96897E-03	10.0981
3.96914E-03	10.2025
3.96914E-03	10.2043
3.96928E-03	10.2679
3.96939E-03	10.3161
3.96952E-03	10.3636
3.96967E-03	10.4092
3.96976E-03	10.4296
3.96983E-03	10.4397
3.96995E-03	10.4493
3.96996E-03	10.4497
3.97000E-03	10.4484
3.97015E-03	10.4352
3.97030E-03	10.4079
3.97045E-03	10.3713
3.97055E-03	10.3378
3.97057E-03	10.3324
3.97071E-03	10.2628
3.97089E-03	10.1665
3.97105E-03	10.0737
3.97122E-03	9.9614
3.97129E-03	9.91581
3.97144E-03	9.80163
3.97209E-03	9.30813
3.97227E-03	9.17611
3.97243E-03	9.06196
3.97256E-03	8.97744
3.97268E-03	8.89609
3.97272E-03	8.87011
3.97281E-03	8.8232
3.97293E-03	8.75638
3.97305E-03	8.69322
3.97316E-03	8.64338
3.97326E-03	8.59607
3.97336E-03	8.55127
3.97344E-03	8.51927
3.97352E-03	8.48861
3.97355E-03	8.47687
3.97359E-03	8.4621
3.97367E-03	8.43876
3.97375E-03	8.41664
3.97383E-03	8.39569
3.97391E-03	8.37396
3.97398E-03	8.35775
3.97405E-03	8.34232
3.97411E-03	8.32763
3.97418E-03	8.31364
3.97425E-03	8.30033
3.97431E-03	8.28765
3.97438E-03	8.27558
3.97445E-03	8.26409
3.97451E-03	8.25313
3.97458E-03	8.24268
3.97462E-03	8.23694
3.97465E-03	8.23386
3.97472E-03	8.22706
3.97478E-03	8.22068
3.97485E-03	8.21469
3.97492E-03	8.20906
3.97500E-03	8.20281
3.97507E-03	8.19772
3.97514E-03	8.19295
3.97521E-03	8.18846
3.97527E-03	8.18425
3.97534E-03	8.18028
3.97541E-03	8.17654
3.97548E-03	8.173
3.97555E-03	8.16966
3.97562E-03	8.16649
3.97569E-03	8.16348
3.97576E-03	8.16062
3.97583E-03	8.15789
3.97592E-03	8.15444
3.97602E-03	8.15118
3.97611E-03	8.14809
3.97620E-03	8.14514
3.97627E-03	8.14311
3.97630E-03	8.14264
3.97639E-03	8.14108
3.97651E-03	8.13916
3.97663E-03	8.13749
3.97674E-03	8.13593
3.97686E-03	8.13446
3.97698E-03	8.13308
3.97713E-03	8.13134
3.97729E-03	8.1297
3.97744E-03	8.12814
3.97760E-03	8.12665
3.97783E-03	8.12451
3.97806E-03	8.12246
3.97829E-03	8.12049
3.97852E-03	8.11858
3.97876E-03	8.11672
3.97902E-03	8.11462
3.97936E-03	8.11202
3.97970E-03	8.10948
3.98004E-03	8.107
3.98027E-03	8.10536
3.98073E-03	8.10214
3.98118E-03	8.09897
3.98163E-03	8.09584
3.98209E-03	8.09276
3.98254E-03	8.0897
3.98319E-03	8.08537
3.98384E-03	8.08108
3.98449E-03	8.07682
3.98514E-03	8.07259
3.98601E-03	8.06699
3.98687E-03	8.06143
3.98774E-03	8.05589
3.98904E-03	8.04762
3.99042E-03	8.03883
3.99185E-03	8.0298
3.99328E-03	8.0208
3.99519E-03	8.00882
3.99710E-03	7.99687
3.99996E-03	7.97898
4.00282E-03	7.96111
4.00657E-03	7.93766
4.01028E-03	7.91456
4.01584E-03	7.87995
4.02134E-03	7.84575
4.02313E-03	7.83461
4.03137E-03	7.78338
4.03755E-03	7.74498
4.04319E-03	7.70994
4.05035E-03	7.66546
4.05609E-03	7.6299
4.06253E-03	7.58992
4.06827E-03	7.5544
4.06898E-03	7.54916
4.07543E-03	7.50198
4.08188E-03	7.45484
4.08833E-03	7.40774
4.09370E-03	7.36853
4.09836E-03	7.33459
4.09908E-03	7.32809
4.10266E-03	7.29563
4.10624E-03	7.26319
4.10982E-03	7.23079
4.11341E-03	7.19842
4.11699E-03	7.16609
4.11985E-03	7.14026
4.12057E-03	7.13213
4.12415E-03	7.09153
4.12684E-03	7.06113
4.12953E-03	7.03076
4.13212E-03	7.00145
4.13418E-03	6.97824
4.13454E-03	6.97312
4.13696E-03	6.93857
4.13938E-03	6.90409
4.14180E-03	6.86966
4.14422E-03	6.83531
4.14663E-03	6.80105
4.14708E-03	6.79472
4.14905E-03	6.75889
4.15147E-03	6.71503
4.15308E-03	6.68586
4.15469E-03	6.65676
4.15631E-03	6.62774
4.15675E-03	6.6197
4.15783E-03	6.59572
4.15926E-03	6.56381
4.16069E-03	6.532
4.16213E-03	6.50028
4.16320E-03	6.47658
4.16356E-03	6.46689
4.16499E-03	6.42827
4.16643E-03	6.38979
4.16786E-03	6.35147
4.16907E-03	6.31928
4.16965E-03	6.30387
4.17055E-03	6.27482
4.17202E-03	6.22714
4.17301E-03	6.19553
4.17399E-03	6.16407
4.17467E-03	6.14273
4.17498E-03	6.13053
4.17596E-03	6.09238
4.17686E-03	6.05788
4.17807E-03	6.01163
4.17888E-03	5.98103
4.17968E-03	5.95063
4.18004E-03	5.93723
4.18049E-03	5.91659
4.18129E-03	5.8797
4.18210E-03	5.8431
4.18291E-03	5.80684
4.18385E-03	5.76501
4.18479E-03	5.72379
4.18514E-03	5.7083
4.18541E-03	5.69513
4.18604E-03	5.66472
4.18667E-03	5.63471
4.18729E-03	5.60514
4.18792E-03	5.57605
4.18870E-03	5.54069
4.18922E-03	5.51766
4.18974E-03	5.49513
4.19026E-03	5.47315
4.19078E-03	5.4518
4.19130E-03	5.43116
4.19182E-03	5.4113
4.19208E-03	5.4018
4.19227E-03	5.39742
4.19287E-03	5.38548
4.19326E-03	5.37835
4.19365E-03	5.37198
4.19380E-03	5.36997
4.19405E-03	5.37217
4.19444E-03	5.37657
4.19484E-03	5.38203
4.19509E-03	5.38627
4.19523E-03	5.39294
4.19571E-03	5.41736
4.19595E-03	5.43005
4.19604E-03	5.43773
4.19636E-03	5.46657
4.19656E-03	5.485
4.19668E-03	5.50128
4.19700E-03	5.54463
4.19716E-03	5.56714
4.19733E-03	5.59762
4.19765E-03	5.66049
4.19777E-03	5.68575
4.19795E-03	5.73219
4.19823E-03	5.80612
4.19824E-03	5.80912
4.19853E-03	5.90763
4.19874E-03	5.98337
4.19881E-03	6.01439
4.19910E-03	6.14129
4.19910E-03	6.14129
4.19939E-03	6.29565
4.19946E-03	6.33518
4.19967E-03	6.47641
4.19982E-03	6.57244
4.19989E-03	6.6286
4.20008E-03	6.78556
4.20010E-03	6.80193
4.20031E-03	6.99755
4.20035E-03	7.03565
4.20052E-03	7.22073
4.20062E-03	7.32967
4.20073E-03	7.47269
4.20089E-03	7.67614
4.20094E-03	7.7571
4.20115E-03	8.07912
4.20116E-03	8.08608
4.20136E-03	8.44881
4.20136E-03	8.45237
4.20154E-03	8.7947
4.20158E-03	8.88444
4.20171E-03	9.18215
4.20179E-03	9.37965
4.20188E-03	9.61648
4.20196E-03	9.85142
4.20205E-03	10.1048
4.20214E-03	10.3835
4.20222E-03	10.6544
4.20232E-03	10.9844
4.20240E-03	11.2733
4.20249E-03	11.6634
4.20257E-03	11.9708
4.20267E-03	12.4313
4.20274E-03	12.7573
4.20284E-03	13.2998
4.20291E-03	13.6443
4.20302E-03	14.282
4.20308E-03	14.6441
4.20320E-03	15.3853
4.20323E-03	15.5727
4.20334E-03	16.3918
4.20337E-03	16.5985
4.20348E-03	17.5018
4.20351E-03	17.7297
4.20363E-03	18.7246
4.20366E-03	18.9756
4.20377E-03	20.0699
4.20380E-03	20.346
4.20391E-03	21.5476
4.20394E-03	21.8506
4.20406E-03	23.1675
4.20409E-03	23.4995
4.20420E-03	24.9396
4.20423E-03	25.3023
4.20434E-03	26.8609
4.20434E-03	26.861
4.20446E-03	28.5326
4.20452E-03	29.4205
4.20457E-03	30.3156
4.20469E-03	32.2415
4.20474E-03	33.2121
4.20486E-03	35.3221
4.20492E-03	36.3847
4.20503E-03	38.6844
4.20509E-03	39.8419
4.20520E-03	42.3268
4.20525E-03	43.2639
4.20536E-03	45.9221
4.20540E-03	46.7576
4.20555E-03	50.4669
4.20556E-03	50.842
4.20575E-03	55.74
4.20576E-03	56.1399
4.20595E-03	61.363
4.20606E-03	64.754
4.20619E-03	68.3712
4.20650E-03	78.2061
4.20692E-03	91.7676
4.20715E-03	99.0824
4.20721E-03	100.839
4.20741E-03	106.939
4.20747E-03	108.568
4.20767E-03	114.208
4.20773E-03	115.67
4.20789E-03	119.911
4.20790E-03	119.99
4.20809E-03	124.24
4.20812E-03	124.824
4.20827E-03	127.607
4.20829E-03	127.87
4.20848E-03	130.768
4.20849E-03	130.893
4.20869E-03	132.933
4.20870E-03	133.049
4.20871E-03	133.162
4.20886E-03	134.011
4.20892E-03	134.327
4.20902E-03	134.465
4.20911E-03	134.55
4.20922E-03	134.242
4.20930E-03	134.001
4.20940E-03	133.33
4.20946E-03	132.885
4.20958E-03	131.699
4.20967E-03	130.709
4.20976E-03	129.49
4.20988E-03	127.727
4.21002E-03	125.262
4.21009E-03	124.042
4.21028E-03	120.127
4.21029E-03	119.829
4.21059E-03	112.766
4.21062E-03	112.03
4.21089E-03	105.012
4.21132E-03	93.4384
4.21162E-03	85.3719
4.21177E-03	81.5501
4.21182E-03	80.0938
4.21202E-03	75.0235
4.21220E-03	70.9395
4.21231E-03	68.2324
4.21237E-03	66.9645
4.21253E-03	63.4996
4.21254E-03	63.2045
4.21271E-03	59.6868
4.21274E-03	59.1043
4.21288E-03	56.3966
4.21296E-03	55.051
4.21301E-03	54.0562
4.21316E-03	51.5834
4.21317E-03	51.3378
4.21330E-03	49.3043
4.21339E-03	47.9572
4.21344E-03	47.1351
4.21359E-03	45.0932
4.21360E-03	44.8903
4.21373E-03	43.2246
4.21382E-03	42.1213
4.21387E-03	41.452
4.21402E-03	39.7898
4.21403E-03	39.6247
4.21417E-03	38.1437
4.21425E-03	37.3806
4.21434E-03	36.4798
4.21443E-03	35.6194
4.21451E-03	34.959
4.21466E-03	33.6633
4.21468E-03	33.5395
4.21485E-03	32.2567
4.21489E-03	31.9179
4.21501E-03	31.0738
4.21512E-03	30.357
4.21518E-03	29.9725
4.21535E-03	28.9577
4.21535E-03	28.9478
4.21555E-03	27.8482
4.21558E-03	27.7019
4.21573E-03	26.9711
4.21581E-03	26.5707
4.21590E-03	26.1628
4.21608E-03	25.4027
4.21615E-03	25.0734
4.21625E-03	24.7012
4.21648E-03	23.8274
4.21651E-03	23.7273
4.21672E-03	23.0543
4.21687E-03	22.5602
4.21695E-03	22.3292
4.21718E-03	21.6662
4.21723E-03	21.5395
4.21742E-03	21.0438
4.21758E-03	20.6407
4.21767E-03	20.4403
4.21793E-03	19.8828
4.21794E-03	19.8431
4.21818E-03	19.3912
4.21843E-03	18.9071
4.21848E-03	18.8039
4.21868E-03	18.4772
4.21893E-03	18.0636
4.21902E-03	17.9166
4.21918E-03	17.6858
4.21947E-03	17.2775
4.21956E-03	17.1506
4.21979E-03	16.8604
4.22009E-03	16.483
4.22011E-03	16.4636
4.22043E-03	16.1178
4.22076E-03	15.7737
4.22081E-03	15.7166
4.22108E-03	15.4707
4.22140E-03	15.177
4.22153E-03	15.0632
4.22172E-03	14.9087
4.22210E-03	14.6151
4.22231E-03	14.4481
4.22253E-03	14.3042
4.22296E-03	14.0178
4.22317E-03	13.8752
4.22339E-03	13.7518
4.22382E-03	13.5062
4.22403E-03	13.3839
4.22425E-03	13.2771
4.22468E-03	13.0642
4.22489E-03	12.9582
4.22511E-03	12.8662
4.22558E-03	12.6638
4.22598E-03	12.4964
4.22610E-03	12.4511
4.22662E-03	12.2642
4.22714E-03	12.078
4.22728E-03	12.0268
4.22766E-03	11.9127
4.22818E-03	11.7558
4.22859E-03	11.6317
4.22870E-03	11.6039
4.22948E-03	11.4031
4.22990E-03	11.295
4.23011E-03	11.2495
4.23073E-03	11.1115
4.23136E-03	10.974
4.23140E-03	10.9642
4.23199E-03	10.8555
4.23261E-03	10.7389
4.23311E-03	10.6475
4.23355E-03	10.5788
4.23449E-03	10.4351
4.23530E-03	10.3124
4.23566E-03	10.258
4.23611E-03	10.2029
4.23691E-03	10.1039
4.23772E-03	10.0051
4.23826E-03	9.93944
4.23852E-03	9.91233
4.23933E-03	9.83121
4.24054E-03	9.70989
4.24094E-03	9.66956
4.24152E-03	9.62194
4.24269E-03	9.52698
4.24385E-03	9.43228
4.24452E-03	9.37777
4.24502E-03	9.34621
4.24618E-03	9.2718
4.24735E-03	9.19756
4.24851E-03	9.12348
4.24936E-03	9.06944
4.24967E-03	9.05365
4.25106E-03	8.98389
4.25268E-03	8.90306
4.25420E-03	8.82689
4.25429E-03	8.82331
4.25590E-03	8.75904
4.25751E-03	8.69491
4.25912E-03	8.6309
4.26065E-03	8.57054
4.26074E-03	8.56766
4.26235E-03	8.51597
4.26396E-03	8.46436
4.26557E-03	8.41282
4.26709E-03	8.36423
4.26799E-03	8.34074
4.27041E-03	8.27743
4.27283E-03	8.21424
4.27525E-03	8.15116
4.27677E-03	8.11149
4.27766E-03	8.09222
4.28008E-03	8.04028
4.28250E-03	7.98841
4.28492E-03	7.93662
4.28734E-03	7.88489
4.29026E-03	7.82253
4.29156E-03	7.79464
4.29403E-03	7.742
4.29650E-03	7.68944
4.29679E-03	7.68326
4.29897E-03	7.63631
4.30144E-03	7.58318
4.30391E-03	7.53016
4.30642E-03	7.47649
4.30810E-03	7.44054
4.30978E-03	7.40464
4.31040E-03	7.39137
4.31146E-03	7.3645
4.31314E-03	7.32189
4.31483E-03	7.27937
4.31651E-03	7.23695
4.31819E-03	7.19465
4.31916E-03	7.17024
4.31940E-03	7.16285
4.32062E-03	7.12596
4.32184E-03	7.08916
4.32305E-03	7.05246
4.32427E-03	7.01587
4.32451E-03	7.00858
4.32549E-03	6.97339
4.32670E-03	6.92954
4.32792E-03	6.88587
4.32889E-03	6.85108
4.32938E-03	6.83375
4.32986E-03	6.81252
4.33084E-03	6.77023
4.33181E-03	6.72812
4.33278E-03	6.68622
4.33351E-03	6.65498
4.33376E-03	6.64225
4.33473E-03	6.5916
4.33546E-03	6.55382
4.33631E-03	6.51
4.33692E-03	6.47894
4.33722E-03	6.46008
4.33813E-03	6.40391
4.33874E-03	6.36675
4.33935E-03	6.32983
4.33984E-03	6.30051
4.33996E-03	6.29172
4.34057E-03	6.24804
4.34111E-03	6.20904
4.34166E-03	6.17036
4.34221E-03	6.13203
4.34227E-03	6.12782
4.34276E-03	6.08777
4.34330E-03	6.04316
4.34385E-03	5.99909
4.34440E-03	5.9556
4.34452E-03	5.94609
4.34495E-03	5.90698
4.34552E-03	5.85544
4.34590E-03	5.82163
4.34628E-03	5.7883
4.34659E-03	5.76143
4.34666E-03	5.75466
4.34704E-03	5.71767
4.34742E-03	5.68137
4.34780E-03	5.64586
4.34814E-03	5.61423
4.34846E-03	5.58637
4.34877E-03	5.55927
4.34908E-03	5.53301
4.34940E-03	5.5077
4.34971E-03	5.48346
4.35002E-03	5.46045
4.35007E-03	5.4574
4.35033E-03	5.44237
4.35061E-03	5.42816
4.35086E-03	5.4169
4.35110E-03	5.40686
4.35112E-03	5.406
4.35134E-03	5.40524
4.35159E-03	5.40596
4.35183E-03	5.40846
4.35185E-03	5.40891
4.35207E-03	5.42264
4.35232E-03	5.44024
4.35234E-03	5.44226
4.35255E-03	5.47189
4.35277E-03	5.50587
4.35283E-03	5.51612
4.35298E-03	5.55555
4.35319E-03	5.61033
4.35320E-03	5.61481
4.35337E-03	5.6778
4.35353E-03	5.74332
4.35356E-03	5.75345
4.35370E-03	5.82826
4.35380E-03	5.88557
4.35386E-03	5.92694
4.35402E-03	6.0423
4.35404E-03	6.05557
4.35419E-03	6.18187
4.35423E-03	6.21454
4.35436E-03	6.35355
4.35441E-03	6.40577
4.35453E-03	6.55732
4.35459E-03	6.63517
4.35466E-03	6.7346
4.35477E-03	6.91008
4.35479E-03	6.93156
4.35491E-03	7.16152
4.35496E-03	7.23987
4.35504E-03	7.41684
4.35508E-03	7.4943
4.35517E-03	7.70772
4.35520E-03	7.78032
4.35530E-03	8.03623
4.35532E-03	8.1015
4.35542E-03	8.40674
4.35544E-03	8.46167
4.35555E-03	8.82392
4.35556E-03	8.86504
4.35568E-03	9.31598
4.35569E-03	9.34547
4.35579E-03	9.73882
4.35583E-03	9.9438
4.35591E-03	10.3113
4.35597E-03	10.6172
4.35604E-03	10.9504
4.35612E-03	11.3771
4.35617E-03	11.6621
4.35626E-03	12.2324
4.35629E-03	12.4528
4.35640E-03	13.1917
4.35642E-03	13.3291
4.35654E-03	14.2644
4.35654E-03	14.2977
4.35667E-03	15.3666
4.35668E-03	15.4673
4.35679E-03	16.5118
4.35679E-03	16.5406
4.35690E-03	17.6521
4.35692E-03	17.8279
4.35702E-03	18.8846
4.35705E-03	19.2344
4.35718E-03	20.9028
4.35719E-03	20.9629
4.35729E-03	22.282
4.35735E-03	23.1767
4.35744E-03	24.4134
4.35752E-03	25.6729
4.35759E-03	26.7367
4.35766E-03	28.0018
4.35774E-03	29.2584
4.35784E-03	31.086
4.35789E-03	31.9747
4.35801E-03	34.4236
4.35802E-03	34.5186
4.35819E-03	38.0375
4.35819E-03	38.1389
4.35837E-03	42.0054
4.35843E-03	43.4821
4.35859E-03	47.142
4.35882E-03	52.9384
4.35886E-03	53.9054
4.35928E-03	64.7719
4.35933E-03	66.0275
4.35950E-03	70.5217
4.35970E-03	75.4763
4.35970E-03	75.4765
4.35989E-03	80.1196
4.35996E-03	81.7235
4.36009E-03	84.4498
4.36022E-03	87.3402
4.36025E-03	87.8446
4.36043E-03	91.1233
4.36045E-03	91.4338
4.36063E-03	94.299
4.36064E-03	94.4548
4.36078E-03	96.1726
4.36082E-03	96.5822
4.36093E-03	97.6167
4.36100E-03	98.2708
4.36119E-03	99.3461
4.36120E-03	99.3764
4.36134E-03	99.6872
4.36137E-03	99.7308
4.36145E-03	99.7013
4.36156E-03	99.451
4.36161E-03	99.3052
4.36176E-03	98.5159
4.36177E-03	98.4464
4.36193E-03	97.1411
4.36193E-03	97.1147
4.36211E-03	95.1498
4.36217E-03	94.4786
4.36228E-03	92.7975
4.36240E-03	91.0859
4.36252E-03	89.094
4.36263E-03	87.0763
4.36277E-03	84.4422
4.36293E-03	81.4112
4.36332E-03	73.2003
4.36349E-03	69.4257
4.36372E-03	64.4239
4.36389E-03	60.9035
4.36390E-03	60.6978
4.36406E-03	57.3575
4.36419E-03	54.8238
4.36424E-03	53.898
4.36440E-03	50.963
4.36442E-03	50.6153
4.36456E-03	48.0212
4.36460E-03	47.3495
4.36474E-03	45.0676
4.36480E-03	43.9967
4.36486E-03	43.2024
4.36497E-03	41.425
4.36501E-03	40.9161
4.36509E-03	39.7504
4.36519E-03	38.4271
4.36521E-03	38.147
4.36533E-03	36.6506
4.36537E-03	36.1458
4.36545E-03	35.2405
4.36555E-03	34.0623
4.36556E-03	33.9556
4.36567E-03	32.7734
4.36573E-03	32.1698
4.36578E-03	31.6472
4.36590E-03	30.5794
4.36591E-03	30.4531
4.36601E-03	29.5984
4.36609E-03	28.9023
4.36612E-03	28.6589
4.36623E-03	27.7862
4.36627E-03	27.5025
4.36634E-03	26.9711
4.36645E-03	26.2402
4.36646E-03	26.1923
4.36657E-03	25.4934
4.36669E-03	24.7683
4.36669E-03	24.7311
4.36681E-03	24.0724
4.36694E-03	23.4195
4.36694E-03	23.3906
4.36707E-03	22.7889
4.36718E-03	22.2776
4.36720E-03	22.2019
4.36732E-03	21.6769
4.36742E-03	21.2801
4.36745E-03	21.1696
4.36758E-03	20.7096
4.36766E-03	20.4055
4.36775E-03	20.1337
4.36791E-03	19.634
4.36792E-03	19.6003
4.36806E-03	19.2166
4.36822E-03	18.7698
4.36827E-03	18.6385
4.36839E-03	18.3704
4.36855E-03	17.9926
4.36864E-03	17.7978
4.36866E-03	17.7495
4.36888E-03	17.3179
4.36900E-03	17.0802
4.36910E-03	16.9134
4.36932E-03	16.5415
4.36937E-03	16.4595
4.36954E-03	16.2103
4.36976E-03	15.8923
4.36985E-03	15.752
4.37002E-03	15.5406
4.37029E-03	15.2112
4.37034E-03	15.1518
4.37056E-03	14.9188
4.37083E-03	14.6362
4.37083E-03	14.6298
4.37109E-03	14.3887
4.37133E-03	14.1769
4.37136E-03	14.1478
4.37163E-03	13.9358
4.37190E-03	13.7249
4.37198E-03	13.6582
4.37225E-03	13.4754
4.37261E-03	13.2366
4.37264E-03	13.2164
4.37296E-03	13.0294
4.37332E-03	12.8261
4.37342E-03	12.7708
4.37368E-03	12.6457
4.37403E-03	12.4744
4.37432E-03	12.3375
4.37439E-03	12.3089
4.37474E-03	12.1642
4.37515E-03	11.9979
4.37522E-03	11.9722
4.37556E-03	11.8555
4.37598E-03	11.718
4.37639E-03	11.5811
4.37657E-03	11.5204
4.37680E-03	11.4577
4.37721E-03	11.3452
4.37778E-03	11.1877
4.37782E-03	11.1792
4.37830E-03	11.0727
4.37885E-03	10.9515
4.37940E-03	10.8308
4.37961E-03	10.7841
4.37994E-03	10.7249
4.38049E-03	10.6285
4.38104E-03	10.5324
4.38143E-03	10.4633
4.38158E-03	10.442
4.38213E-03	10.3656
4.38271E-03	10.2853
4.38332E-03	10.2011
4.38387E-03	10.1254
4.38393E-03	10.1187
4.38453E-03	10.0521
4.38545E-03	9.95246
4.38630E-03	9.85984
4.38636E-03	9.8546
4.38727E-03	9.77639
4.38812E-03	9.70365
4.38897E-03	9.63113
4.38958E-03	9.57946
4.38983E-03	9.56317
4.39068E-03	9.5063
4.39153E-03	9.44957
4.39238E-03	9.39299
4.39287E-03	9.36072
4.39323E-03	9.34182
4.39408E-03	9.29783
4.39518E-03	9.2414
4.39627E-03	9.18512
4.39737E-03	9.12896
4.39749E-03	9.12273
4.39846E-03	9.08429
4.39956E-03	9.04113
4.40065E-03	8.99806
4.40174E-03	8.95506
4.40235E-03	8.93122
4.40284E-03	8.91643
4.40442E-03	8.86848
4.40600E-03	8.82064
4.40758E-03	8.77289
4.40843E-03	8.74723
4.40916E-03	8.73036
4.41074E-03	8.69387
4.41233E-03	8.65745
4.41391E-03	8.62108
4.41549E-03	8.58476
4.41573E-03	8.57918
4.41719E-03	8.55412
4.41889E-03	8.52492
4.42060E-03	8.49577
4.42315E-03	8.45211
4.42570E-03	8.40851
4.42619E-03	8.40022
4.42826E-03	8.37463
4.43081E-03	8.34306
4.43337E-03	8.31153
4.43592E-03	8.28005
4.43848E-03	8.24859
4.43981E-03	8.23213
4.44103E-03	8.22105
4.44371E-03	8.19671
4.44662E-03	8.17018
4.44954E-03	8.14367
4.45246E-03	8.11719
4.45441E-03	8.09955
4.45635E-03	8.08641
4.46012E-03	8.06098
4.46377E-03	8.0364
4.46742E-03	8.01183
4.47107E-03	7.98728
4.47496E-03	7.96111
4.47581E-03	7.95539
4.47910E-03	7.93824
4.48323E-03	7.91666
4.48737E-03	7.8951
4.49076E-03	7.87744
4.49208E-03	7.87056
4.49241E-03	7.87005
4.49274E-03	7.86954
4.49323E-03	7.86879
4.49348E-03	7.86842
4.49373E-03	7.86807
4.49389E-03	7.86785
4.49406E-03	7.86764
4.49422E-03	7.86745
4.49435E-03	7.86732
4.49447E-03	7.86721
4.49459E-03	7.86711
4.49472E-03	7.86704
4.49484E-03	7.87068
4.49492E-03	7.87312
4.49501E-03	7.87558
4.49509E-03	7.87806
4.49517E-03	7.88055
4.49525E-03	7.88307
4.49534E-03	7.88561
4.49542E-03	7.88817
4.49550E-03	7.89076
4.49558E-03	7.89338
4.49567E-03	7.89604
4.49571E-03	7.89739
4.49575E-03	7.9012
4.49583E-03	7.90886
4.49591E-03	7.91656
4.49600E-03	7.92431
4.49608E-03	7.93212
4.49616E-03	7.93998
4.49624E-03	7.9479
4.49633E-03	7.95588
4.49637E-03	7.9599
4.49641E-03	7.96725
4.49649E-03	7.98201
4.49658E-03	7.99686
4.49666E-03	8.01178
4.49674E-03	8.0268
4.49682E-03	8.04191
4.49686E-03	8.04951
4.49691E-03	8.06134
4.49699E-03	8.08508
4.49707E-03	8.10894
4.49715E-03	8.13291
4.49724E-03	8.157
4.49732E-03	8.18121
4.49736E-03	8.19339
4.49740E-03	8.21099
4.49748E-03	8.24633
4.49757E-03	8.28181
4.49765E-03	8.31743
4.49773E-03	8.3532
4.49785E-03	8.40713
4.49798E-03	8.47697
4.49810E-03	8.54717
4.49818E-03	8.5942
4.49823E-03	8.62311
4.49835E-03	8.71015
4.49847E-03	8.79757
4.49860E-03	8.88532
4.49868E-03	8.94407
4.49876E-03	9.01465
4.49893E-03	9.15636
4.49913E-03	9.33422
4.49917E-03	9.36993
4.49934E-03	9.533
4.49959E-03	9.77834
4.50000E-03	10.1882
4.50037E-03	10.5601
4.50074E-03	10.931
4.50099E-03	11.1506
4.50124E-03	11.3692
4.50149E-03	11.5522
4.50174E-03	11.7338
4.50198E-03	11.8755
4.50223E-03	12.0158
4.50248E-03	12.1177
4.50273E-03	12.2183
4.50310E-03	12.3201
4.50322E-03	12.3533
4.50347E-03	12.3913
4.50397E-03	12.4649
4.50446E-03	12.4924
4.50496E-03	12.5187
4.50645E-03	12.5296
4.50694E-03	12.533
4.50744E-03	12.5328
4.99868E-03	12.3337
5.54952E-03	12.1125
5.58114E-03	12.0999
6.07951E-03	11.9364
6.40057E-03	11.832
6.72951E-03	11.7398
7.47268E-03	11.5333
7.61634E-03	11.4937
8.37732E-03	11.3242
9.17622E-03	11.1479
9.51875E-03	11.0727
1.01411E-02	10.9509
1.10589E-02	10.7702
1.19299E-02	10.6
1.22300E-02	10.5418
1.31236E-02	10.398
1.42139E-02	10.2239
1.46230E-02	10.1591
1.55351E-02	10.0395
1.67508E-02	9.88126
1.70263E-02	9.85023
1.82521E-02	9.71316
1.91183E-02	9.61678
1.95357E-02	9.57781
2.14458E-02	9.40065
2.29961E-02	9.25773
2.33176E-02	9.23338
2.53527E-02	9.08017
2.55315E-02	9.06678
2.76473E-02	8.94523
2.98248E-02	8.82092
3.07907E-02	8.76608
3.28089E-02	8.67163
3.53097E-02	8.55532
3.55348E-02	8.54641
3.88377E-02	8.41644
4.23130E-02	8.28045
4.25657E-02	8.2725
4.56303E-02	8.17664
4.95284E-02	8.05521
5.14208E-02	7.99664
5.51518E-02	7.90513
5.87469E-02	7.81738
6.12637E-02	7.75617
6.41287E-02	7.69866
7.04938E-02	7.57156
7.29871E-02	7.5221
7.76082E-02	7.44401
8.35612E-02	7.34379
8.60434E-02	7.30212
9.17314E-02	7.22373
1.00000E-01	7.11017
1.00000E-01	7.11017
1.10525E-01	6.96666
1.10589E-01	6.96591
1.23323E-01	6.81752
1.30631E-01	6.73257
1.36053E-01	6.68054
1.47615E-01	6.56985
1.49545E-01	6.55387
1.66060E-01	6.41747
1.73030E-01	6.36003
1.86163E-01	6.26875
2.01411E-01	6.16301
2.27626E-01	5.98199
2.29231E-01	5.97092
2.49071E-01	5.85203
2.63163E-01	5.76767
2.73359E-01	5.71537
3.00000E-01	5.57891
3.02116E-01	5.56807
3.23359E-01	5.45948
3.23360E-01	5.45947
3.24436E-01	5.45499
3.25640E-01	5.44998
3.26566E-01	5.44611
3.28643E-01	5.43743
3.32548E-01	5.42105
3.32704E-01	5.42035
3.38378E-01	5.3944
3.43669E-01	5.37012
3.50251E-01	5.33982
3.58884E-01	5.29991
3.64718E-01	5.27282
3.67291E-01	5.26089
3.68749E-01	5.2552
3.76325E-01	5.22551
3.87982E-01	5.17957
4.00000E-01	5.13193
4.11366E-01	5.0819
4.22949E-01	5.03741
4.41020E-01	4.96773
4.56722E-01	4.90694
4.63166E-01	4.88555
4.69585E-01	4.86427
5.00000E-01	4.76287
5.03527E-01	4.75093
5.30502E-01	4.65982
5.39672E-01	4.63206
5.82492E-01	4.50174
5.82500E-01	4.50173
5.84659E-01	4.49558
5.86820E-01	4.48938
5.88457E-01	4.48472
5.93374E-01	4.47061
5.94201E-01	4.46826
6.00000E-01	4.45157
6.11673E-01	4.41995
6.32371E-01	4.3635
6.32651E-01	4.36274
6.48855E-01	4.31827
6.57217E-01	4.29515
6.65343E-01	4.27596
6.73537E-01	4.25664
6.73943E-01	4.25568
7.00000E-01	4.19342
7.09876E-01	4.16778
7.37175E-01	4.10676
7.64242E-01	4.04572
7.74597E-01	4.02238
7.85525E-01	3.99752
8.00000E-01	3.96936
8.59195E-01	3.84977
8.62754E-01	3.84319
8.84747E-01	3.80216
8.84760E-01	3.80216
8.86651E-01	3.79879
8.89969E-01	3.79286
8.97482E-01	3.77935
9.00000E-01	3.7748
9.22501E-01	3.73773
9.49464E-01	3.69299
9.74004E-01	3.65199
9.74405E-01	3.65132
9.80874E-01	3.64034
1.00000E+00	3.61415
1.02153E+00	3.5822
1.04353E+00	3.54933
1.04370E+00	3.54909
1.04609E+00	3.54576
1.05074E+00	3.53929
1.05951E+00	3.52706
1.06724E+00	3.51626
1.08075E+00	3.49735
1.08091E+00	3.49713
1.08093E+00	3.4971
1.09912E+00	3.47194
1.10257E+00	3.46715
1.12290E+00	3.43878
1.12298E+00	3.43867
1.12639E+00	3.43557
1.13090E+00	3.43146
1.13239E+00	3.42984
1.14145E+00	3.41992
1.15058E+00	3.40986
1.15060E+00	3.40983
1.15358E+00	3.40582
1.15872E+00	3.39891
1.15939E+00	3.39823
1.17034E+00	3.38698
1.17467E+00	3.38252
1.18002E+00	3.37698
1.19714E+00	3.35917
1.19926E+00	3.35694
1.21175E+00	3.34383
1.21998E+00	3.33512
1.24165E+00	3.31203
1.24277E+00	3.31101
1.25000E+00	3.30445
1.27573E+00	3.28019
1.29537E+00	3.26151
1.30199E+00	3.25516
1.31532E+00	3.24234
1.33557E+00	3.22265
1.33816E+00	3.22012
1.35614E+00	3.20663
1.35630E+00	3.2065
1.36057E+00	3.20307
1.36890E+00	3.19638
1.37674E+00	3.19006
1.39158E+00	3.17807
1.40069E+00	3.17068
1.40469E+00	3.16814
1.42626E+00	3.15436
1.42730E+00	3.15368
1.42793E+00	3.15326
1.45903E+00	3.13281
1.48622E+00	3.11476
1.49268E+00	3.11045
1.50000E+00	3.10556
1.50487E+00	3.10178
1.50930E+00	3.09824
1.50975E+00	3.09789
1.51450E+00	3.09495
1.52116E+00	3.09081
1.52286E+00	3.09006
1.53548E+00	3.08443
1.54820E+00	3.07872
1.54821E+00	3.07872
1.55412E+00	3.07593
1.56563E+00	3.07049
1.57198E+00	3.06748
1.57650E+00	3.06533
1.58113E+00	3.06311
1.59611E+00	3.05729
1.59708E+00	3.05691
1.61446E+00	3.05004
1.61532E+00	3.0497
1.64550E+00	3.03757
1.64707E+00	3.03694
1.64772E+00	3.03667
1.65711E+00	3.03279
1.66871E+00	3.02799
1.67076E+00	3.02731
1.67246E+00	3.02673
1.69641E+00	3.01852
1.69722E+00	3.01824
1.71025E+00	3.01364
1.74890E+00	2.99986
1.74945E+00	2.99986
1.75000E+00	2.99983
1.75502E+00	2.99821
1.76385E+00	2.99536
1.77018E+00	2.9933
1.77718E+00	2.99248
1.79060E+00	2.99087
1.82193E+00	2.98536
1.86996E+00	2.97677
1.87996E+00	2.97495
1.88625E+00	2.97429
1.91925E+00	2.97061
1.93572E+00	2.96992
1.95233E+00	2.96916
1.98797E+00	2.96657
2.00000E+00	2.96567
2.00061E+00	2.96557
2.00123E+00	2.96545
2.00194E+00	2.96623
2.01718E+00	2.96559
2.01804E+00	2.96555
2.03695E+00	2.9655
2.04515E+00	2.96591
2.05338E+00	2.96614
2.06421E+00	2.96651
2.07510E+00	2.9669
2.11282E+00	2.97177
2.14155E+00	2.97538
2.15122E+00	2.97655
2.16336E+00	2.97797
2.17068E+00	2.97881
2.18539E+00	2.9805
2.19032E+00	2.98105
2.20020E+00	2.98214
2.23013E+00	2.98536
2.24091E+00	2.98613
2.25174E+00	2.98849
2.26777E+00	2.99256
2.27582E+00	2.99458
2.28391E+00	2.9966
2.31645E+00	3.00363
2.31840E+00	3.00405
2.35341E+00	3.01153
2.37049E+00	3.01564
2.38770E+00	3.0197
2.40454E+00	3.02314
2.42295E+00	3.02818
2.43683E+00	3.03197
2.44077E+00	3.03305
2.45872E+00	3.03794
2.46146E+00	3.03859
2.46420E+00	3.03922
2.46486E+00	3.03974
2.46552E+00	3.04022
2.48068E+00	3.04598
2.51033E+00	3.05721
2.52674E+00	3.06341
2.55173E+00	3.07283
2.55400E+00	3.07368
2.58155E+00	3.08402
2.58947E+00	3.08699
2.59032E+00	3.0873
2.60590E+00	3.09314
2.62370E+00	3.09979
2.63048E+00	3.10233
2.63830E+00	3.10524
2.67406E+00	3.11853
2.68034E+00	3.12086
2.68651E+00	3.12315
2.70118E+00	3.12855
2.71836E+00	3.13484
2.71966E+00	3.13532
2.75206E+00	3.14751
2.77297E+00	3.15535
2.77858E+00	3.15745
2.78719E+00	3.16067
2.79040E+00	3.16187
2.81577E+00	3.1714
2.82807E+00	3.176
2.83817E+00	3.17977
2.83893E+00	3.18006
2.85639E+00	3.18656
2.87010E+00	3.19165
2.89164E+00	3.19963
2.91277E+00	3.20743
2.92844E+00	3.21321
2.93729E+00	3.21647
2.94506E+00	3.21932
2.95174E+00	3.22177
2.95606E+00	3.22336
3.00000E+00	3.23944
3.08028E+00	3.27171
3.15583E+00	3.30095
3.18144E+00	3.31046
3.22371E+00	3.32617
3.25074E+00	3.3367
3.31184E+00	3.35936
3.32211E+00	3.36323
3.37673E+00	3.38377
3.40237E+00	3.39286
3.46410E+00	3.41542
3.47190E+00	3.41827
3.48609E+00	3.42354
3.52279E+00	3.43717
3.54284E+00	3.44423
3.59094E+00	3.46137
3.63647E+00	3.47761
3.65198E+00	3.48284
3.66368E+00	3.48683
3.68910E+00	3.49552
3.78992E+00	3.53115
3.81391E+00	3.53963
3.84141E+00	3.54873
3.88046E+00	3.56178
3.88220E+00	3.56237
3.91990E+00	3.57528
3.97481E+00	3.5942
4.00000E+00	3.60287
4.11314E+00	3.62668
4.22949E+00	3.65119
4.26001E+00	3.65746
4.31890E+00	3.66957
4.38695E+00	3.68397
4.41020E+00	3.68889
4.44684E+00	3.69607
4.47994E+00	3.70257
4.53278E+00	3.71322
4.53752E+00	3.71417
4.55078E+00	3.71678
4.59863E+00	3.7265
4.65915E+00	3.73891
4.68825E+00	3.74501
4.69585E+00	3.74661
4.77011E+00	3.76082
4.84554E+00	3.7753
4.86393E+00	3.77892
4.88370E+00	3.78281
4.89649E+00	3.78537
4.92216E+00	3.79054
4.94151E+00	3.79444
5.00000E+00	3.80626
5.03527E+00	3.81089
5.11526E+00	3.81822
5.23318E+00	3.82904
5.26401E+00	3.83206
5.39184E+00	3.84461
5.41517E+00	3.84691
5.47723E+00	3.85331
5.48503E+00	3.854
5.53784E+00	3.85878
5.55580E+00	3.86041
5.60349E+00	3.86477
5.66367E+00	3.87039
5.69255E+00	3.87316
5.77363E+00	3.88093
5.79835E+00	3.88331
5.80050E+00	3.88352
5.82941E+00	3.88639
5.88573E+00	3.89205
5.89832E+00	3.89332
5.94259E+00	3.89784
5.96637E+00	3.90028
6.00000E+00	3.90372
6.11673E+00	3.90542
6.23574E+00	3.90717
6.26679E+00	3.90768
6.39521E+00	3.90979
6.41860E+00	3.91018
6.48074E+00	3.91127
6.48855E+00	3.91144
6.54133E+00	3.91263
6.66677E+00	3.91546
6.69550E+00	3.91614
6.73537E+00	3.91709
6.80057E+00	3.91828
6.80270E+00	3.91833
6.83136E+00	3.91887
6.86641E+00	3.91956
6.88711E+00	3.91997
6.96680E+00	3.92159
7.00000E+00	3.92226
7.10829E+00	3.91733
7.23762E+00	3.91144
7.26884E+00	3.91004
7.39769E+00	3.90426
7.48331E+00	3.90043
7.49113E+00	3.9001
7.54388E+00	3.89792
7.66904E+00	3.89276
7.69766E+00	3.8916
7.80430E+00	3.88725
7.88812E+00	3.88383
7.93423E+00	3.88197
8.00000E+00	3.87931
8.11865E+00	3.86848
8.23907E+00	3.8575
8.27706E+00	3.85404
8.45029E+00	3.83827
8.48528E+00	3.83509
8.48528E+00	3.83509
8.49309E+00	3.83439
8.61113E+00	3.82386
8.67077E+00	3.81855
8.73885E+00	3.81249
8.80342E+00	3.80676
8.88889E+00	3.79917
9.00000E+00	3.78933
9.07327E+00	3.78353
9.24021E+00	3.76461
9.33193E+00	3.75422
9.48683E+00	3.73669
9.56524E+00	3.72782
9.74004E+00	3.70805
9.74004E+00	3.70805
9.78021E+00	3.70355
9.78021E+00	3.70355
1.00000E+01	3.67895
1.01411E+01	3.66079
1.02411E+01	3.64791
1.02842E+01	3.64237
1.03331E+01	3.63608
1.03856E+01	3.62932
1.04292E+01	3.6237
1.04591E+01	3.61986
1.04881E+01	3.61739
1.05665E+01	3.60821
1.06361E+01	3.60007
1.07410E+01	3.58779
1.07410E+01	3.58779
1.07811E+01	3.58312
1.07861E+01	3.58253
1.08536E+01	3.57467
1.08925E+01	3.57012
1.09383E+01	3.56479
1.10000E+01	3.5576
1.10926E+01	3.54467
1.11552E+01	3.53594
1.12419E+01	3.52384
1.13126E+01	3.51511
1.13340E+01	3.51247
1.13648E+01	3.50866
1.14005E+01	3.50425
1.14891E+01	3.49331
1.14891E+01	3.49331
1.15613E+01	3.4844
1.15675E+01	3.48364
1.16512E+01	3.47332
1.17244E+01	3.46429
1.17418E+01	3.46215
1.17418E+01	3.46215
1.17818E+01	3.45757
1.18899E+01	3.44517
1.19074E+01	3.44316
1.20000E+01	3.43255
1.20576E+01	3.42485
1.21693E+01	3.40992
1.22277E+01	3.40211
1.23348E+01	3.3878
1.23410E+01	3.38697
1.24002E+01	3.37905
1.24900E+01	3.36705
1.25151E+01	3.36429
1.25683E+01	3.35843
1.26662E+01	3.34767
1.26917E+01	3.34487
1.27824E+01	3.33489
1.28449E+01	3.32801
1.28707E+01	3.32518
1.30000E+01	3.31096
1.30261E+01	3.30763
1.31834E+01	3.28761
1.32099E+01	3.28424
1.33354E+01	3.26826
1.33694E+01	3.26393
1.33963E+01	3.26051
1.34907E+01	3.24849
1.35580E+01	3.24133
1.35691E+01	3.24015
1.36811E+01	3.22823
1.37493E+01	3.22097
1.37829E+01	3.2174
1.38549E+01	3.20974
1.38741E+01	3.20769
1.39433E+01	3.20033
1.40000E+01	3.19429
1.40698E+01	3.18633
1.41975E+01	3.17175
1.42478E+01	3.16601
1.43978E+01	3.15068
1.44488E+01	3.14547
1.45000E+01	3.14023
1.46009E+01	3.12981
1.46527E+01	3.12446
1.47479E+01	3.11463
1.48069E+01	3.10854
1.48594E+01	3.10314
1.50000E+01	3.08865
1.52116E+01	3.07
1.53365E+01	3.05899
1.54262E+01	3.05108
1.54919E+01	3.04529
1.55702E+01	3.03866
1.56439E+01	3.03243
1.57439E+01	3.02395
1.58554E+01	3.01451
1.58646E+01	3.01373
1.59660E+01	3.00514
1.60000E+01	3.00226
1.62257E+01	2.98751
1.62443E+01	2.9863
1.64546E+01	2.97256
1.66179E+01	2.96189
1.66868E+01	2.95739
1.67443E+01	2.95363
1.69037E+01	2.9435
1.69222E+01	2.94232
1.70000E+01	2.93738
1.72398E+01	2.92691
1.74305E+01	2.91859
1.74831E+01	2.9163
1.77297E+01	2.90553
1.77446E+01	2.90488
1.78081E+01	2.90218
1.79799E+01	2.89487
1.80000E+01	2.89401
1.82539E+01	2.88785
1.84309E+01	2.88356
1.85115E+01	2.8816
1.87726E+01	2.87526
1.88084E+01	2.8744
1.90000E+01	2.86974
1.92681E+01	2.86751
1.94312E+01	2.86616
1.95399E+01	2.86525
1.98086E+01	2.86302
1.98156E+01	2.86296
2.00000E+01	2.86142