E(MeV)	"1-H-WTR(N,TOT),,SIG"
1.200E-10	386.30
1.800E-10	352.14
2.200E-10	336.37
2.700E-10	321.00
3.500E-10	302.53
4.000E-10	293.45
5.000E-10	278.87
5.900E-10	268.53
6.400E-10	263.59
7.300E-10	255.79
7.700E-10	252.69
7.800E-10	251.95
8.300E-10	248.40
9.200E-10	242.63
1.000E-09	238.05
1.030E-09	236.45
1.140E-09	231.03
1.200E-09	228.34
1.300E-09	224.21
1.450E-09	218.69
1.460E-09	218.35
1.690E-09	211.17
1.980E-09	203.67
2.100E-09	200.95
2.220E-09	198.42
2.460E-09	193.82
2.600E-09	191.39
2.650E-09	190.56
2.950E-09	185.95
3.290E-09	181.38
3.540E-09	178.37
3.550E-09	178.25
3.590E-09	177.80
3.627E-09	177.38
3.732E-09	176.23
3.808E-09	175.42
3.932E-09	174.14
3.940E-09	174.06
4.200E-09	171.54
4.365E-09	170.04
4.427E-09	169.49
4.500E-09	168.86
4.601E-09	168.00
4.636E-09	167.71
4.851E-09	165.99
4.860E-09	165.92
4.890E-09	165.68
5.115E-09	163.99
5.200E-09	163.37
5.250E-09	163.02
5.394E-09	162.01
5.453E-09	161.61
5.680E-09	160.11
5.689E-09	160.06
5.715E-09	159.89
5.977E-09	158.26
6.000E-09	158.12
6.180E-09	157.06
6.324E-09	156.24
6.329E-09	156.21
6.600E-09	154.72
6.675E-09	154.32
6.773E-09	153.81
7.018E-09	152.56
7.040E-09	152.46
7.130E-09	152.01
7.265E-09	151.36
7.425E-09	150.61
7.700E-09	149.37
7.830E-09	148.80
8.000E-09	148.07
8.255E-09	147.01
8.324E-09	146.73
8.626E-09	145.54
8.701E-09	145.26
9.050E-09	143.96
9.169E-09	143.53
9.332E-09	142.95
9.557E-09	142.18
9.658E-09	141.84
1.001E-08	140.68
1.019E-08	140.11
1.061E-08	138.83
1.074E-08	138.44
1.111E-08	137.37
1.132E-08	136.79
1.176E-08	135.60
1.195E-08	135.11
1.261E-08	133.46
1.261E-08	133.46
1.300E-08	132.53
1.304E-08	132.44
1.329E-08	131.87
1.366E-08	131.04
1.400E-08	130.31
1.403E-08	130.25
1.463E-08	129.01
1.481E-08	128.65
1.500E-08	128.27
1.515E-08	127.98
1.561E-08	127.11
1.600E-08	126.40
1.622E-08	124.36
1.648E-08	123.83
1.698E-08	122.83
1.739E-08	122.03
1.799E-08	120.86
1.800E-08	120.84
1.833E-08	120.21
1.883E-08	119.27
1.900E-08	118.96
1.934E-08	118.33
1.996E-08	117.20
2.000E-08	117.13
2.043E-08	116.36
2.137E-08	114.73
2.157E-08	114.39
2.213E-08	113.44
2.275E-08	112.42
2.371E-08	110.87
2.402E-08	110.39
2.512E-08	108.70
2.530E-08	108.43
2.541E-08	108.27
2.630E-08	106.96
2.684E-08	106.19
2.786E-08	104.77
2.831E-08	104.16
2.918E-08	103.01
2.991E-08	102.08
3.000E-08	101.96
3.090E-08	100.85
3.164E-08	99.96
3.272E-08	98.70
3.342E-08	97.91
3.427E-08	96.98
3.500E-08	96.21
3.524E-08	95.96
3.600E-08	95.18
3.671E-08	94.48
3.720E-08	94.00
3.758E-08	93.64
3.934E-08	92.03
4.000E-08	91.45
4.117E-08	90.47
4.167E-08	90.06
4.312E-08	88.93
4.404E-08	88.24
4.500E-08	87.55
4.515E-08	87.45
4.645E-08	86.56
4.780E-08	85.69
4.905E-08	84.93
5.000E-08	84.37
5.063E-08	84.01
5.188E-08	83.33
5.423E-08	82.15
5.479E-08	81.88
5.500E-08	81.78
5.677E-08	80.99
5.808E-08	80.44
5.944E-08	79.89
6.000E-08	79.68
6.120E-08	79.23
6.365E-08	78.39
6.458E-08	78.08
6.500E-08	77.95
6.590E-08	77.68
6.824E-08	77.00
6.977E-08	76.58
7.000E-08	76.52
7.223E-08	75.96
7.472E-08	75.37
7.500E-08	75.31
7.657E-08	74.96
7.910E-08	74.42
8.000E-08	74.24
8.132E-08	73.98
8.374E-08	73.51
8.500E-08	73.28
8.606E-08	73.08
8.766E-08	72.79
9.000E-08	72.37
9.075E-08	72.23
9.388E-08	71.68
9.583E-08	71.34
1.000E-07	70.61
1.005E-07	70.52
1.014E-07	70.36
1.074E-07	69.32
1.076E-07	69.29
1.089E-07	69.06
1.139E-07	68.22
1.193E-07	67.36
1.211E-07	67.09
1.249E-07	66.58
1.290E-07	66.12
1.338E-07	65.76
1.368E-07	65.66
1.400E-07	64.53
1.443E-07	64.15
1.500E-07	63.65
1.517E-07	63.50
1.524E-07	63.44
1.588E-07	62.89
1.613E-07	62.68
1.681E-07	62.12
1.709E-07	61.89
1.779E-07	61.34
1.815E-07	61.05
1.905E-07	60.37
1.931E-07	60.17
1.995E-07	59.70
2.000E-07	59.67
2.058E-07	59.25
2.136E-07	58.71
2.198E-07	58.30
2.262E-07	57.88
2.332E-07	57.43
2.457E-07	56.67
2.500E-07	56.42
2.506E-07	56.39
2.590E-07	55.91
2.653E-07	55.57
2.736E-07	55.13
2.841E-07	54.61
2.896E-07	54.35
3.000E-07	53.87
3.070E-07	53.57
3.149E-07	53.23
3.261E-07	52.79
3.410E-07	52.25
3.471E-07	52.04
3.570E-07	51.72
3.701E-07	51.32
3.867E-07	50.87
3.955E-07	50.66
4.187E-07	50.15
4.222E-07	50.08
4.236E-07	50.05
4.383E-07	49.78
4.548E-07	49.52
4.800E-07	49.18
4.895E-07	49.07
5.078E-07	48.88
5.082E-07	48.88
5.215E-07	48.76
5.319E-07	48.68
5.496E-07	48.56
5.694E-07	48.45
5.799E-07	48.40
5.958E-07	48.32
6.090E-07	48.27
6.128E-07	48.26
6.451E-07	48.14
6.486E-07	48.13
6.676E-07	48.07
6.876E-07	48.01
7.067E-07	47.94
7.303E-07	47.86
7.306E-07	47.86
7.651E-07	47.73
7.771E-07	47.68
8.008E-07	47.58
8.284E-07	47.45
8.477E-07	47.36
8.808E-07	47.19
8.851E-07	47.17
9.076E-07	47.06
9.478E-07	46.87
9.940E-07	46.68
1.000E-06	46.65
1.017E-06	46.60
1.052E-06	46.50
1.064E-06	46.48
1.095E-06	46.43
1.152E-06	46.39
1.182E-06	46.38
1.248E-06	46.21
1.258E-06	46.15
1.279E-06	46.14
1.351E-06	46.10
1.389E-06	46.08
1.440E-06	46.05
1.463E-06	46.04
1.514E-06	46.02
1.519E-06	46.01
1.621E-06	45.96
1.657E-06	45.94
1.775E-06	45.88
1.818E-06	45.86
1.821E-06	45.86
1.966E-06	45.79
2.010E-06	45.77
2.128E-06	45.72
2.169E-06	45.70
2.171E-06	45.70
2.203E-06	45.69
2.290E-06	45.65
2.358E-06	45.62
2.419E-06	45.59
2.524E-06	45.55
2.559E-06	45.54
2.603E-06	45.52
2.642E-06	45.50
2.712E-06	45.47
2.829E-06	45.43
2.879E-06	45.41
2.994E-06	45.37
3.062E-06	45.34
3.142E-06	45.32
3.169E-06	45.31
3.263E-06	45.27
3.431E-06	45.22
3.473E-06	45.20
3.484E-06	45.20
3.633E-06	45.15
3.729E-06	45.12
3.765E-06	45.11
3.888E-06	45.08
4.001E-06	45.05
4.176E-06	45.00
4.210E-06	44.99
4.303E-06	44.96
4.525E-06	44.91
4.559E-06	44.90
4.640E-06	44.88
4.880E-06	44.83
5.006E-06	44.80
5.020E-06	44.80
5.405E-06	44.72
5.447E-06	44.71
5.451E-06	44.71
5.918E-06	44.63
5.932E-06	44.63
5.998E-06	44.62
6.338E-06	44.57
6.459E-06	44.56
6.484E-06	44.55
7.102E-06	44.48
7.117E-06	44.48
7.212E-06	44.47
7.774E-06	44.42
7.777E-06	44.42
7.848E-06	44.41
8.615E-06	44.36
8.689E-06	44.36
8.697E-06	44.36
9.334E-06	44.33
9.692E-06	44.32
9.762E-06	44.32
1.039E-05	44.31
1.087E-05	44.30
1.106E-05	44.30
1.115E-05	44.30
1.225E-05	44.30
1.227E-05	44.30
1.246E-05	44.30
1.355E-05	44.31
1.388E-05	44.31
1.397E-05	44.31
1.495E-05	44.32
1.604E-05	44.33
1.609E-05	44.33
1.636E-05	44.33
1.794E-05	44.33
1.952E-05	44.32
2.149E-05	44.29
2.369E-05	44.23
2.519E-05	44.18
2.828E-05	44.08
3.093E-05	44.00
3.299E-05	43.95
3.709E-05	43.93
3.898E-05	43.95
4.462E-05	44.11
4.675E-05	44.18
5.342E-05	44.30
5.712E-05	44.28
6.398E-05	44.00
7.135E-05	44.00
7.729E-05	44.00
8.582E-05	44.00
9.323E-05	44.00
9.807E-05	44.00
1.121E-04	44.00
1.220E-04	44.00
1.340E-04	43.99
1.559E-04	43.99
1.607E-04	43.99
1.934E-04	43.99
2.296E-04	43.98
4.696E-04	43.95
5.709E-04	43.94
6.890E-04	43.92
3.500E-01	19.87
4.600E-01	17.41
9.700E-01	13.28
1.000E+00	13.07
1.600E+00	8.26
2.000E+00	6.80
2.600E+00	6.21
3.000E+00	5.64