E(MeV)	pendfb7/Kr78:1
1.00000E-11	376.40031
1.02999E-11	370.896463
1.06087E-11	365.475269
1.09269E-11	360.13132
1.12544E-11	354.869254
1.15920E-11	349.681609
1.19395E-11	344.573005
1.22976E-11	339.536892
1.26662E-11	334.577531
1.30462E-11	329.687919
1.34372E-11	324.874106
1.38403E-11	320.127571
1.42552E-11	315.454258
1.46827E-11	310.847019
1.51229E-11	306.309763
1.55765E-11	301.836542
1.60434E-11	297.432637
1.65246E-11	293.090534
1.70199E-11	288.815127
1.75304E-11	284.600401
1.80559E-11	280.44971
1.85975E-11	276.358066
1.91550E-11	272.32908
1.97295E-11	268.357338
2.03209E-11	264.446146
2.09305E-11	260.590228
2.15579E-11	256.794025
2.22045E-11	253.051207
2.28701E-11	249.366034
2.35561E-11	245.732757
2.42622E-11	242.155684
2.49899E-11	238.629127
2.57390E-11	235.156678
2.65110E-11	231.733623
2.73057E-11	228.362903
2.81247E-11	225.040303
2.89678E-11	221.768424
2.98367E-11	218.5431
3.07311E-11	215.36748
3.16528E-11	212.237
3.26017E-11	209.154478
3.35795E-11	206.115922
3.45861E-11	203.123989
3.56235E-11	200.174642
3.66913E-11	197.270743
3.77919E-11	194.408082
3.89247E-11	191.589624
4.00923E-11	188.811125
4.12941E-11	186.075666
4.25327E-11	183.378959
4.38076E-11	180.724047
4.51216E-11	178.106863
4.64742E-11	175.530088
4.78681E-11	172.990101
4.93030E-11	170.489247
5.07818E-11	168.024193
5.23041E-11	165.598246
5.25258E-11	165.258066
5.38729E-11	163.20668
5.43296E-11	162.537088
5.54878E-11	160.851753
5.61954E-11	159.86046
5.71521E-11	158.530211
5.81252E-11	157.227591
5.88653E-11	156.244231
6.01213E-11	154.637744
6.06310E-11	153.990627
6.21860E-11	152.090126
6.24484E-11	151.771779
6.43215E-11	149.584398
6.62496E-11	147.432883
6.65304E-11	147.131222
6.82368E-11	145.311866
6.88152E-11	144.718149
7.02822E-11	143.223579
7.11784E-11	142.344629
7.23903E-11	141.164906
7.36228E-11	140.009958
7.45603E-11	139.137951
7.61511E-11	137.713603
7.67967E-11	137.139808
7.87663E-11	135.454836
7.90987E-11	135.17255
8.14712E-11	133.233325
8.39134E-11	131.325998
8.42691E-11	131.058573
8.64304E-11	129.445837
8.71630E-11	128.9196
8.90212E-11	127.59478
9.01563E-11	126.815775
9.16913E-11	125.77013
9.32525E-11	124.746478
9.44399E-11	123.973655
9.64549E-11	122.711354
9.72725E-11	122.202915
9.97673E-11	120.709573
1.00188E-10	120.45958
1.03193E-10	118.741446
1.06287E-10	117.051218
1.06737E-10	116.814563
1.09475E-10	115.385391
1.10403E-10	114.919115
1.12756E-10	113.745608
1.14194E-10	113.055506
1.16139E-10	112.128968
1.18116E-10	111.22249
1.19620E-10	110.537934
1.22172E-10	109.420004
1.23208E-10	108.969472
1.26368E-10	107.647036
1.26901E-10	107.425591
1.30707E-10	105.904012
1.34626E-10	104.407379
1.35196E-10	104.19783
1.38664E-10	102.932328
1.39839E-10	102.519719
1.42820E-10	101.480617
1.44641E-10	100.869787
1.47104E-10	100.049638
1.49608E-10	99.2471838
1.51513E-10	98.6411172
1.54746E-10	97.65158
1.56058E-10	97.2529032
1.60060E-10	96.0826788
1.60736E-10	95.8864232
1.65557E-10	94.5398175
1.70520E-10	93.2155762
1.71243E-10	93.0299364
1.75635E-10	91.9104929
1.77123E-10	91.5455227
1.80899E-10	90.6260964
1.83206E-10	90.0856816
1.86325E-10	89.360331
1.89498E-10	88.6503463
1.91911E-10	88.114287
1.96005E-10	87.2392088
1.97667E-10	86.8864885
2.02737E-10	85.8513776
2.03592E-10	85.6780495
2.09699E-10	84.4872026
2.15985E-10	83.3163964
2.16900E-10	83.152421
2.22463E-10	82.1626865
2.24349E-10	81.8398949
2.29132E-10	81.027144
2.32053E-10	80.5496234
2.36004E-10	79.9085936
2.41036E-10	79.1233126
2.43079E-10	78.8069972
2.50370E-10	77.7212005
2.57875E-10	76.6546898
2.60061E-10	76.3558674
2.65610E-10	75.6033692
2.70132E-10	75.0135668
2.73572E-10	74.5684112
2.80588E-10	73.6951751
2.81777E-10	73.5483328
2.90224E-10	72.5451765
2.91454E-10	72.4046727
2.98929E-10	71.5575598
3.02735E-10	71.1427559
3.07890E-10	70.5853182
3.14459E-10	69.902173
3.17125E-10	69.6270524
3.26631E-10	68.6838291
3.36428E-10	67.7562268
3.39280E-10	67.4965599
3.46513E-10	66.8431173
3.52412E-10	66.3306464
3.56906E-10	65.9432135
3.66060E-10	65.1844913
3.67605E-10	65.0573961
3.78631E-10	64.1853773
3.80229E-10	64.0638605
3.89981E-10	63.3279809
3.94953E-10	62.9672402
4.01678E-10	62.482997
4.10241E-10	61.890268
4.13719E-10	61.6513095
4.26128E-10	60.8317263
4.38901E-10	60.0267863
4.42622E-10	59.8013734
4.52066E-10	59.2337672
4.61703E-10	58.676996
4.65617E-10	58.4526975
4.79583E-10	57.6835128
4.81607E-10	57.5763549
4.93959E-10	56.9277668
5.02369E-10	56.5033357
5.08775E-10	56.1826322
5.24026E-10	55.4488792
5.39744E-10	54.7279382
5.46617E-10	54.424961
5.55923E-10	54.0179814
5.70181E-10	53.4188327
5.72598E-10	53.3180506
5.89762E-10	52.6303978
5.94762E-10	52.4379048
6.07452E-10	51.9531804
6.20402E-10	51.4779006
6.25661E-10	51.2864309
6.44427E-10	50.6300474
6.49890E-10	50.4464452
6.63744E-10	49.9847614
6.80768E-10	49.4397648
6.83653E-10	49.348158
7.04146E-10	48.7231072
7.13125E-10	48.4600144
7.25267E-10	48.1071547
7.47007E-10	47.5002821
7.69413E-10	46.9043634
7.82513E-10	46.5696904
7.92477E-10	46.3171526
8.16247E-10	45.7385894
8.19692E-10	45.6580455
8.40715E-10	45.1704416
8.58653E-10	44.7708799
8.65932E-10	44.6100404
8.91889E-10	44.0592999
9.03262E-10	43.8275611
9.18641E-10	43.5168035
9.46178E-10	42.982528
9.50188E-10	42.907812
9.74558E-10	42.4575005
9.99553E-10	42.0140392
1.00377E-09	41.9397952
1.03388E-09	41.4310653
1.05148E-09	41.1454928
1.06487E-09	40.9300581
1.09681E-09	40.4367073
1.11078E-09	40.2296036
1.12969E-09	39.9515079
1.16357E-09	39.4732372
1.17344E-09	39.3395745
1.19845E-09	39.0034095
1.23440E-09	38.5397534
1.23961E-09	38.4752442
1.27140E-09	38.0849112
1.30954E-09	37.635552
1.31506E-09	37.5730381
1.34879E-09	37.1948303
1.38925E-09	36.7594664
1.39511E-09	36.6988986
1.43089E-09	36.3324141
1.47381E-09	35.9105849
1.48003E-09	35.8519037
1.51799E-09	35.4968726
1.56352E-09	35.0882524
1.57677E-09	34.9741175
1.61039E-09	34.6870719
1.65869E-09	34.2913495
1.67981E-09	34.1253164
1.70841E-09	33.9023856
1.75966E-09	33.5192188
1.79717E-09	33.2501028
1.81240E-09	33.1417216
1.86677E-09	32.7707711
1.92272E-09	32.4044764
1.98039E-09	32.0454038
2.03976E-09	31.6908818
2.06577E-09	31.541875
2.10094E-09	31.3420869
2.16392E-09	30.9989915
2.21942E-09	30.7089938
2.22882E-09	30.6602446
2.29563E-09	30.3282388
2.36449E-09	30.0000935
2.39460E-09	29.8624752
2.43537E-09	29.677678
2.50842E-09	29.3601957
2.58361E-09	29.0467952
2.66110E-09	28.7396279
2.74087E-09	28.436462
2.79935E-09	28.2233316
2.82308E-09	28.1375657
2.90771E-09	27.8443517
2.99492E-09	27.5546242
3.04591E-09	27.3922008
3.08470E-09	27.2696978
3.17722E-09	26.9895592
3.27246E-09	26.7131092
3.32818E-09	26.55805
3.37062E-09	26.4409431
3.47166E-09	26.1737039
3.57579E-09	25.9096888
3.65202E-09	25.7244003
3.68297E-09	25.6497863
3.79344E-09	25.3946106
3.90715E-09	25.1428439
4.02435E-09	24.8941227
4.14498E-09	24.6508082
4.26931E-09	24.4104849
4.39728E-09	24.1733808
4.45336E-09	24.0738042
4.52918E-09	23.9402916
4.66494E-09	23.7112015
4.80487E-09	23.4849384
4.94890E-09	23.261719
5.09734E-09	23.0430969
5.25013E-09	22.8274604
5.40761E-09	22.6144979
5.52289E-09	22.4650915
5.56971E-09	22.4049169
5.73677E-09	22.1991995
5.90873E-09	21.9963086
6.08596E-09	21.7959492
6.21571E-09	21.6553949
6.26840E-09	21.598794
6.45641E-09	21.405309
6.64995E-09	21.2145006
6.84941E-09	21.0260918
7.05473E-09	20.8402656
7.26633E-09	20.6583511
7.48415E-09	20.4789729
7.70863E-09	20.301872
7.93970E-09	20.1272202
8.07488E-09	20.0293284
8.17785E-09	19.9553972
8.42299E-09	19.7868093
8.67563E-09	19.6203843
8.93569E-09	19.4562822
9.20371E-09	19.2942673
9.32091E-09	19.2263982
9.47961E-09	19.1352811
9.76394E-09	18.9789295
1.00566E-08	18.8247836
1.03583E-08	18.6726211
1.06688E-08	18.5225898
1.08964E-08	18.4172267
1.09888E-08	18.3748358
1.13182E-08	18.2300711
1.16577E-08	18.0871921
1.20071E-08	17.9463376
1.23672E-08	17.8073039
1.27380E-08	17.6702259
1.29004E-08	17.6126975
1.31200E-08	17.53557
1.35133E-08	17.4033274
1.39186E-08	17.2728165
1.43359E-08	17.1441638
1.47659E-08	17.0171838
1.52085E-08	16.8919996
1.54674E-08	16.8218577
1.56647E-08	16.7688846
1.61342E-08	16.6481314
1.66182E-08	16.5289709
1.71163E-08	16.4115196
1.76297E-08	16.2956087
1.81582E-08	16.1813519
1.87028E-08	16.0685845
1.89410E-08	16.0213622
1.92635E-08	15.9580316
1.98412E-08	15.8494052
2.04360E-08	15.742358
2.10490E-08	15.6367365
2.16799E-08	15.5326554
2.23302E-08	15.4299415
2.29996E-08	15.3287064
2.36894E-08	15.2288043
2.43996E-08	15.130332
2.52687E-08	15.0153718
2.53000E-08	15.0113692
2.60589E-08	14.9167737
2.68400E-08	14.8235595
2.76450E-08	14.7315928
2.84737E-08	14.6409633
2.93278E-08	14.5515412
3.02069E-08	14.463414
3.11130E-08	14.3764557
3.20456E-08	14.2907514
3.28675E-08	14.2184362
3.30068E-08	14.2062824
3.39962E-08	14.1236599
3.50159E-08	14.0421553
3.60655E-08	13.9618487
3.71473E-08	13.8826257
3.82608E-08	13.8045638
3.94084E-08	13.7275512
4.05898E-08	13.6516628
4.18072E-08	13.5767889
4.30604E-08	13.5030018
4.43520E-08	13.4301942
4.56815E-08	13.3590664
4.70517E-08	13.2889031
4.84621E-08	13.2197726
4.99157E-08	13.1515757
5.14120E-08	13.0843796
5.29541E-08	13.0180886
5.45414E-08	12.9527684
5.61773E-08	12.888326
5.78613E-08	12.8248253
5.95968E-08	12.7621755
6.13833E-08	12.7004383
6.32245E-08	12.6395253
6.51197E-08	12.5800251
6.70729E-08	12.5213387
6.90835E-08	12.463524
7.11556E-08	12.4064985
7.32886E-08	12.3503187
7.54868E-08	12.2949048
7.77496E-08	12.2403122
8.00817E-08	12.186463
8.24822E-08	12.13341
8.49562E-08	12.0810764
8.75029E-08	12.0295114
9.01274E-08	11.9786389
9.28291E-08	11.9285062
9.56135E-08	11.8790404
9.72414E-08	11.851351
9.84796E-08	11.8304709
1.01433E-07	11.7827985
1.04474E-07	11.7358335
1.07608E-07	11.68951
1.10833E-07	11.6438744
1.14158E-07	11.5988619
1.17580E-07	11.554517
1.21106E-07	11.5107763
1.24737E-07	11.4676826
1.28478E-07	11.4251742
1.32329E-07	11.3832929
1.36298E-07	11.3419787
1.40384E-07	11.301272
1.44595E-07	11.2611147
1.48929E-07	11.2215466
1.53396E-07	11.1825122
1.57995E-07	11.1440513
1.62733E-07	11.1061103
1.67612E-07	11.0687261
1.68322E-07	11.0635141
1.72639E-07	11.0321197
1.77814E-07	10.9961001
1.83147E-07	10.9605664
1.88637E-07	10.9255524
1.94296E-07	10.8910099
2.00120E-07	10.8569755
2.06122E-07	10.8234023
2.12301E-07	10.7903243
2.18669E-07	10.7576942
2.25224E-07	10.7255441
2.31979E-07	10.6938279
2.38933E-07	10.6625768
2.46100E-07	10.6317459
2.53477E-07	10.6013653
2.61080E-07	10.5713916
2.68906E-07	10.541854
2.76971E-07	10.5127101
2.85274E-07	10.4839884
2.93830E-07	10.4556477
3.02638E-07	10.4277159
3.11716E-07	10.4001541
3.21060E-07	10.3729917
3.30690E-07	10.3461931
3.40603E-07	10.3197836
3.50819E-07	10.2937174
3.59816E-07	10.271724
3.61335E-07	10.2680433
3.72173E-07	10.2428856
3.83329E-07	10.2180878
3.94827E-07	10.1936175
4.06662E-07	10.1694998
4.18860E-07	10.1457001
4.31416E-07	10.1222418
4.44356E-07	10.099091
4.57676E-07	10.0762703
4.71403E-07	10.0537469
4.85534E-07	10.0315428
5.00097E-07	10.0096259
5.15088E-07	9.98801753
5.30538E-07	9.96668664
5.46442E-07	9.9456539
5.62832E-07	9.92488898
5.79703E-07	9.90441202
5.97091E-07	9.88419347
6.14990E-07	9.8642529
6.33436E-07	9.84456153
6.52424E-07	9.82513884
6.71993E-07	9.80595972
6.92136E-07	9.78704908
7.12897E-07	9.76837578
7.34266E-07	9.74994211
7.56290E-07	9.73172029
7.78961E-07	9.71373554
8.02325E-07	9.6959646
8.26376E-07	9.67842475
8.51163E-07	9.6610905
8.76677E-07	9.6439784
9.02972E-07	9.6270635
9.30040E-07	9.61036192
9.57936E-07	9.59384925
9.86651E-07	9.57754119
1.01196E-06	9.56371041
1.04051E-06	9.54867144
1.06987E-06	9.53379483
1.10006E-06	9.51907712
1.13110E-06	9.50451487
1.16301E-06	9.49010475
1.19583E-06	9.47584533
1.22957E-06	9.46191078
1.26427E-06	9.44813288
1.29994E-06	9.43448163
1.33662E-06	9.4209603
1.37433E-06	9.40757498
1.41311E-06	9.39432351
1.45298E-06	9.3812027
1.49398E-06	9.36820935
1.55781E-06	9.34890699
1.62405E-06	9.32996212
1.69343E-06	9.31118787
1.76544E-06	9.29274726
1.84086E-06	9.27445811
1.91914E-06	9.25647917
2.00113E-06	9.23865612
2.08622E-06	9.22113199
2.17535E-06	9.20367879
2.26785E-06	9.18648822
2.36474E-06	9.16939045
2.46529E-06	9.15253306
2.57061E-06	9.13574837
2.67992E-06	9.11918026
2.79441E-06	9.10266277
2.91323E-06	9.0863378
3.03769E-06	9.07004289
3.21154E-06	9.04851312
3.39533E-06	9.02719669
3.58964E-06	9.00589507
3.79508E-06	8.98467451
4.01227E-06	8.96351425
4.24189E-06	8.94238615
4.48464E-06	8.92123591
4.74130E-06	8.900042
5.01264E-06	8.87878729
5.44904E-06	8.84671833
5.84103E-06	8.81969938
6.26243E-06	8.79231803
6.80764E-06	8.75900411
7.29736E-06	8.73071049
7.82383E-06	8.70177268
8.38666E-06	8.67223776
8.50498E-06	8.66631578
9.11680E-06	8.63809854
9.91052E-06	8.60347942
1.06255E-05	8.57376568
1.15506E-05	8.53684709
1.25562E-05	8.49849058
1.36493E-05	8.45848895
1.46312E-05	8.42375306
1.56868E-05	8.3875058
1.68152E-05	8.34979819
1.90601E-05	8.27745539
2.04313E-05	8.23458553
2.19053E-05	8.18954833
2.34811E-05	8.14229586
2.55253E-05	8.09004145
2.73669E-05	8.04393375
2.93356E-05	7.99556463
3.18895E-05	7.93393854
3.46658E-05	7.86817935
3.71668E-05	7.80987783
3.92938E-05	7.7609833
4.15426E-05	7.70978538
4.39200E-05	7.65620302
4.64335E-05	7.6002093
4.90909E-05	7.54165532
5.19003E-05	7.48040222
5.48705E-05	7.41647554
5.71000E-05	7.36905547
5.95395E-05	7.31779863
6.29469E-05	7.24727947
6.54220E-05	7.19705229
6.72680E-05	7.15245715
6.90130E-05	7.11084835
7.04735E-05	7.07653773
7.29626E-05	7.01925853
7.47700E-05	6.97885364
7.68797E-05	6.92021555
7.79644E-05	6.89084934
7.90490E-05	6.8621347
8.01643E-05	6.83336744
8.12795E-05	6.79630817
8.30649E-05	6.73914429
8.37475E-05	6.71818858
8.46025E-05	6.69275196
8.50300E-05	6.68054556
8.54575E-05	6.66391848
8.63125E-05	6.63184746
8.70250E-05	6.60616237
8.78800E-05	6.57678241
8.87350E-05	6.54035125
8.95544E-05	6.5074688
9.00888E-05	6.48727297
9.06231E-05	6.46136769
9.11575E-05	6.43670387
9.16919E-05	6.41350025
9.22263E-05	6.3919159
9.27606E-05	6.36268165
9.32950E-05	6.33555235
9.37938E-05	6.31239985
9.42925E-05	6.29159486
9.47913E-05	6.2628683
9.52900E-05	6.23735203
9.56641E-05	6.22061185
9.57888E-05	6.21580982
9.60381E-05	6.19979514
9.64122E-05	6.17840216
9.67863E-05	6.15998144
9.71603E-05	6.14493429
9.72850E-05	6.14120031
9.75344E-05	6.12645702
9.79084E-05	6.10874459
9.82825E-05	6.09609703
9.86566E-05	6.07754453
9.90306E-05	6.06580298
9.92800E-05	6.06232054
9.96273E-05	6.05222209
9.98589E-05	6.05036653
9.99747E-05	6.05164525
1.00090E-04	6.04880196
1.00322E-04	6.04801363
1.00554E-04	6.05264333
1.00669E-04	6.05800695
1.00785E-04	6.05841058
1.01017E-04	6.06624333
1.01222E-04	6.07981855
1.01311E-04	6.08925397
1.01489E-04	6.09971045
1.01667E-04	6.11767731
1.01845E-04	6.1424236
1.02023E-04	6.16531764
1.02201E-04	6.19664865
1.02379E-04	6.23743667
1.02558E-04	6.27942592
1.02736E-04	6.33473567
1.02771E-04	6.34400789
1.02985E-04	6.41975316
1.03092E-04	6.46724612
1.03128E-04	6.48099233
1.03270E-04	6.5476035
1.03413E-04	6.62720436
1.03448E-04	6.65074449
1.03555E-04	6.71404541
1.03698E-04	6.81482098
1.03804E-04	6.90592106
1.03871E-04	6.95793516
1.03987E-04	7.06553842
1.04103E-04	7.18888187
1.04107E-04	7.19429887
1.04219E-04	7.32186375
1.04334E-04	7.474062
1.04357E-04	7.50754068
1.04450E-04	7.64143651
1.04566E-04	7.83189516
1.04606E-04	7.90689648
1.04668E-04	8.01855582
1.04802E-04	8.29506826
1.04855E-04	8.42506681
1.04935E-04	8.6134812
1.05025E-04	8.85371647
1.05069E-04	8.98780966
1.05114E-04	9.11859157
1.05203E-04	9.41135611
1.05247E-04	9.57520532
1.05292E-04	9.73592392
1.05372E-04	10.058654
1.05425E-04	10.3017248
1.05479E-04	10.5410182
1.05586E-04	11.0928432
1.05603E-04	11.1964845
1.05657E-04	11.504159
1.05728E-04	11.9566683
1.05746E-04	12.0815998
1.05799E-04	12.4535451
1.05871E-04	13.0023542
1.05933E-04	13.5328184
1.05937E-04	13.5705592
1.06000E-04	14.1515708
1.06062E-04	14.7893613
1.06124E-04	15.4906576
1.06187E-04	16.2632275
1.06249E-04	17.1161431
1.06263E-04	17.3183854
1.06311E-04	18.0624001
1.06352E-04	18.7375674
1.06374E-04	19.1140575
1.06423E-04	20.0257273
1.06425E-04	20.0590033
1.06476E-04	21.1208088
1.06483E-04	21.2677486
1.06512E-04	21.9206056
1.06542E-04	22.6162944
1.06548E-04	22.7530769
1.06576E-04	23.48468
1.06601E-04	24.1266354
1.06605E-04	24.22915
1.06633E-04	25.0517133
1.06660E-04	25.8253603
1.06662E-04	25.8832274
1.06683E-04	26.5796872
1.06704E-04	27.2780124
1.06719E-04	27.7449308
1.06726E-04	28.0042376
1.06747E-04	28.7844159
1.06764E-04	29.4038912
1.06765E-04	29.4397079
1.06783E-04	30.158392
1.06800E-04	30.8791398
1.06809E-04	31.2405897
1.06818E-04	31.6402625
1.06834E-04	32.3617538
1.06850E-04	33.0852703
1.06857E-04	33.4078282
1.06866E-04	33.850046
1.06882E-04	34.648446
1.06893E-04	35.1823178
1.06896E-04	35.3270971
1.06909E-04	36.0528484
1.06922E-04	36.7806864
1.06929E-04	37.1213181
1.06936E-04	37.5445911
1.06949E-04	38.3405129
1.06963E-04	39.1389547
1.06964E-04	39.2457436
1.06976E-04	40.0023781
1.06989E-04	40.8782048
1.07000E-04	41.5813134
1.07003E-04	41.7734697
1.07016E-04	42.7373787
1.07025E-04	43.3818713
1.07036E-04	44.1576252
1.07037E-04	44.2993773
1.07050E-04	45.2951252
1.07062E-04	46.2944191
1.07071E-04	47.0108694
1.07075E-04	47.3261401
1.07085E-04	48.2753363
1.07096E-04	49.2275872
1.07107E-04	50.183257
1.07118E-04	51.2421366
1.07130E-04	52.4823232
1.07142E-04	53.7279669
1.07155E-04	55.1151276
1.07167E-04	56.5084541
1.07178E-04	57.7086394
1.07180E-04	57.9282463
1.07192E-04	59.4729843
1.07205E-04	61.0255097
1.07217E-04	62.7212834
1.07232E-04	64.6705121
1.07246E-04	66.8078947
1.07258E-04	68.690376
1.07260E-04	68.9819869
1.07274E-04	71.3304481
1.07280E-04	72.3650411
1.07288E-04	73.6505107
1.07301E-04	76.0765719
1.07307E-04	77.2169263
1.07314E-04	78.6481737
1.07328E-04	81.3504226
1.07334E-04	82.6211382
1.07341E-04	84.2202033
1.07354E-04	87.2411525
1.07361E-04	88.6620113
1.07368E-04	90.4399682
1.07381E-04	93.7997174
1.07383E-04	94.2516815
1.07394E-04	97.474244
1.07408E-04	101.223461
1.07410E-04	101.727783
1.07421E-04	105.363531
1.07435E-04	109.594727
1.07436E-04	110.164113
1.07448E-04	114.202778
1.07454E-04	116.39779
1.07461E-04	119.091256
1.07472E-04	123.168652
1.07475E-04	124.2643
1.07488E-04	129.792789
1.07490E-04	130.536805
1.07499E-04	134.533718
1.07508E-04	138.561806
1.07509E-04	139.428326
1.07520E-04	144.668257
1.07525E-04	147.309412
1.07531E-04	150.150165
1.07541E-04	155.877791
1.07543E-04	156.840193
1.07552E-04	162.016817
1.07561E-04	167.236365
1.07563E-04	168.359355
1.07574E-04	175.151809
1.07579E-04	178.576899
1.07584E-04	182.260669
1.07595E-04	189.687947
1.07597E-04	190.93706
1.07606E-04	197.647209
1.07614E-04	204.413605
1.07616E-04	205.867782
1.07632E-04	219.092563
1.07648E-04	233.470175
1.07650E-04	235.088252
1.07664E-04	248.970775
1.07668E-04	252.486554
1.07680E-04	265.66594
1.07686E-04	271.386653
1.07696E-04	283.629242
1.07704E-04	291.892851
1.07712E-04	302.930803
1.07721E-04	314.104831
1.07728E-04	323.643516
1.07739E-04	338.12542
1.07745E-04	345.837573
1.07757E-04	364.048985
1.07761E-04	369.582535
1.07775E-04	391.97037
1.07777E-04	394.939867
1.07793E-04	421.971282
1.07809E-04	451.19868
1.07817E-04	465.977082
1.07825E-04	481.837885
1.07839E-04	511.226097
1.07841E-04	514.074472
1.07857E-04	548.625792
1.07862E-04	560.261834
1.07873E-04	584.971114
1.07885E-04	613.041527
1.07889E-04	622.932937
1.07907E-04	669.583972
1.07910E-04	676.605136
1.07932E-04	733.441651
1.07933E-04	738.421114
1.07951E-04	788.726648
1.07958E-04	809.061201
1.07978E-04	867.930802
1.07994E-04	916.614682
1.08003E-04	945.028325
1.08035E-04	1048.32589
1.08038E-04	1059.91993
1.08075E-04	1182.2612
1.08136E-04	1389.52212
1.08172E-04	1505.33298
1.08184E-04	1543.52125
1.08208E-04	1613.64704
1.08222E-04	1653.29602
1.08238E-04	1698.06509
1.08261E-04	1754.67565
1.08269E-04	1772.52912
1.08287E-04	1810.71243
1.08297E-04	1830.71732
1.08313E-04	1856.62811
1.08326E-04	1877.00176
1.08340E-04	1894.18733
1.08354E-04	1910.30699
1.08369E-04	1920.67529
1.08383E-04	1929.84008
1.08399E-04	1934.81051
1.08399E-04	1934.97523
1.08426E-04	1932.82996
1.08451E-04	1918.50946
1.08454E-04	1916.692
1.08478E-04	1892.48562
1.08482E-04	1887.76305
1.08502E-04	1858.9613
1.08506E-04	1853.01303
1.08530E-04	1808.49905
1.08535E-04	1798.94277
1.08562E-04	1738.40393
1.08566E-04	1730.16557
1.08596E-04	1651.63127
1.08598E-04	1646.89271
1.08632E-04	1549.02355
1.08669E-04	1431.46162
1.08685E-04	1380.35956
1.08728E-04	1240.93142
1.08771E-04	1100.80468
1.08808E-04	982.658596
1.08833E-04	907.524213
1.08856E-04	840.475385
1.08858E-04	835.372761
1.08886E-04	757.760058
1.08892E-04	743.997457
1.08910E-04	696.366761
1.08918E-04	677.078408
1.08934E-04	638.939406
1.08945E-04	615.027277
1.08958E-04	585.520071
1.08972E-04	557.89925
1.08982E-04	536.114297
1.08999E-04	505.287529
1.09016E-04	473.244174
1.09025E-04	458.089216
1.09034E-04	443.185867
1.09052E-04	415.04697
1.09070E-04	388.992969
1.09079E-04	376.727246
1.09088E-04	364.691798
1.09105E-04	342.067718
1.09123E-04	321.236916
1.09132E-04	311.464156
1.09141E-04	301.889783
1.09159E-04	283.971013
1.09160E-04	283.092931
1.09178E-04	265.89323
1.09186E-04	259.775546
1.09197E-04	250.04973
1.09212E-04	238.183966
1.09216E-04	235.451383
1.09235E-04	222.075849
1.09239E-04	219.102756
1.09253E-04	209.803624
1.09266E-04	202.20854
1.09272E-04	198.494755
1.09291E-04	188.096998
1.09292E-04	187.170654
1.09309E-04	178.577009
1.09319E-04	173.924199
1.09328E-04	169.788381
1.09346E-04	162.061245
1.09348E-04	161.305378
1.09369E-04	152.862953
1.09373E-04	151.553836
1.09390E-04	145.179757
1.09408E-04	139.243671
1.09412E-04	138.090098
1.09433E-04	131.637477
1.09444E-04	128.620847
1.09455E-04	125.689465
1.09479E-04	119.353513
1.09483E-04	118.472546
1.09512E-04	111.999131
1.09515E-04	111.251986
1.09540E-04	106.165937
1.09551E-04	104.147592
1.09569E-04	100.871306
1.09586E-04	97.8222253
1.09595E-04	96.3435814
1.09622E-04	92.1971165
1.09640E-04	89.6292914
1.09658E-04	87.1521106
1.09693E-04	82.5859043
1.09729E-04	78.5090856
1.09754E-04	75.8565723
1.09764E-04	74.7612943
1.09800E-04	71.3603191
1.09818E-04	69.7690563
1.09836E-04	68.2355947
1.09877E-04	64.9446009
1.09882E-04	64.5458506
1.09923E-04	61.5976247
1.09946E-04	60.052206
1.09969E-04	58.5581282
1.10010E-04	56.0998504
1.10016E-04	55.7900918
1.10062E-04	53.2875156
1.10088E-04	51.9806372
1.10108E-04	50.9805273
1.10155E-04	48.8593595
1.10157E-04	48.7441202
1.10201E-04	46.9372892
1.10253E-04	44.9276247
1.10261E-04	44.6028253
1.10310E-04	42.9304821
1.10366E-04	41.1052594
1.10367E-04	41.0775256
1.10424E-04	39.4135106
1.10470E-04	38.1418294
1.10481E-04	37.8603636
1.10538E-04	36.4466696
1.10574E-04	35.5908421
1.10595E-04	35.1313902
1.10652E-04	33.92227
1.10698E-04	32.9932238
1.10716E-04	32.6524885
1.10787E-04	31.3708791
1.10831E-04	30.6170966
1.10858E-04	30.1859101
1.10929E-04	29.1027252
1.10965E-04	28.5906668
1.11001E-04	28.1050372
1.11072E-04	27.1863027
1.11143E-04	26.3144386
1.11214E-04	25.5329986
1.11290E-04	24.7439114
1.11321E-04	24.435111
1.11370E-04	23.9764308
1.11450E-04	23.2639578
1.11499E-04	22.8493889
1.11531E-04	22.5992909
1.11611E-04	21.9867813
1.11678E-04	21.504605
1.11731E-04	21.1423304
1.11851E-04	20.3805717
1.11940E-04	19.8463834
1.11945E-04	19.8208659
1.12038E-04	19.3221729
1.12136E-04	18.824351
1.12185E-04	18.5864659
1.12234E-04	18.3647164
1.12381E-04	17.7359313
1.12488E-04	17.3063335
1.12528E-04	17.1567152
1.12675E-04	16.6409199
1.12791E-04	16.2553881
1.12800E-04	16.2277372
1.12924E-04	15.8588549
1.13049E-04	15.5062721
1.13094E-04	15.3855675
1.13174E-04	15.1832847
1.13298E-04	14.88174
1.13423E-04	14.5947223
1.13485E-04	14.4612948
1.13673E-04	14.0838688
1.13779E-04	13.8787363
1.13833E-04	13.7848571
1.13993E-04	13.5160529
1.14153E-04	13.2586487
1.14314E-04	13.011413
1.14474E-04	12.7970271
1.14634E-04	12.5908036
1.14848E-04	12.3278759
1.14875E-04	12.2979854
1.15062E-04	12.0986739
1.15276E-04	11.8802036
1.15383E-04	11.7753679
1.15489E-04	11.6810007
1.15703E-04	11.5000636
1.15917E-04	11.3260821
1.16095E-04	11.1862544
1.16131E-04	11.161327
1.16344E-04	11.0172075
1.16558E-04	10.8779039
1.16790E-04	10.7318844
1.16843E-04	10.6992883
1.17039E-04	10.5924576
1.17288E-04	10.4612566
1.17538E-04	10.334306
1.17591E-04	10.3079171
1.17787E-04	10.2225616
1.18037E-04	10.1173376
1.18411E-04	9.96515855
1.18660E-04	9.86705216
1.18945E-04	9.77249287
1.19230E-04	9.68072058
1.19658E-04	9.54767598
1.19800E-04	9.50493579
1.20085E-04	9.43245351
1.20513E-04	9.3278807
1.20940E-04	9.2268985
1.21341E-04	9.13507063
1.21510E-04	9.09731937
1.21742E-04	9.05315037
1.22142E-04	8.97884342
1.22543E-04	8.90645569
1.22650E-04	8.88767337
1.23078E-04	8.82339054
1.23612E-04	8.74557645
1.24146E-04	8.66999935
1.24681E-04	8.59637288
1.24788E-04	8.58198858
1.25215E-04	8.53484884
1.25696E-04	8.48310499
1.26177E-04	8.43246712
1.26818E-04	8.36641352
1.27210E-04	8.32694995
1.27459E-04	8.30599728
1.28065E-04	8.25631022
1.28635E-04	8.2104829
1.29205E-04	8.16546321
1.29490E-04	8.14339684
1.30060E-04	8.10759059
1.30905E-04	8.05590983
1.31750E-04	8.00534021
1.32629E-04	7.95378921
1.33576E-04	7.89929189
1.34523E-04	7.85791785
1.35470E-04	7.81734052
1.36417E-04	7.77745433
1.37364E-04	7.7381704
1.38311E-04	7.69941322
1.38627E-04	7.68664827
1.39258E-04	7.66694689
1.40521E-04	7.62816845
1.41783E-04	7.59000626
1.43046E-04	7.55237241
1.44309E-04	7.51519286
1.44940E-04	7.49680005
1.45571E-04	7.48281473
1.46834E-04	7.45518665
1.49149E-04	7.40530169
1.50833E-04	7.3695202
1.52516E-04	7.33409754
1.54200E-04	7.29898191
1.55883E-04	7.27256671
1.57567E-04	7.24638037
1.59250E-04	7.22039323
1.62617E-04	7.16892066
1.65143E-04	7.13068496
1.65984E-04	7.11802109
1.67668E-04	7.09852963
1.70193E-04	7.06951603
1.74402E-04	7.02154441
1.77769E-04	6.98345804
1.81136E-04	6.9455766
1.82820E-04	6.92672254
1.84503E-04	6.91196979
1.87870E-04	6.8826103
1.91238E-04	6.85337499
1.94605E-04	6.82424614
2.01339E-04	6.76625265
2.06389E-04	6.7229515
2.08073E-04	6.70855856
2.11440E-04	6.68606385
2.16491E-04	6.65244094
2.24908E-04	6.59659898
2.31254E-04	6.5546442
2.37780E-04	6.5116104
2.43882E-04	6.47144611
2.54893E-04	6.3991612
2.60399E-04	6.36309696
2.68657E-04	6.30909443
2.76915E-04	6.25518586
2.82421E-04	6.21930544
2.90389E-04	6.16745412
2.98583E-04	6.11423328
3.09948E-04	6.04060758
3.15453E-04	6.00502775
3.20959E-04	5.96429714
3.26464E-04	5.92363867
3.31970E-04	5.8830621
3.37475E-04	5.84257979
3.42981E-04	5.80220754
3.48486E-04	5.75328883
3.52615E-04	5.71670271
3.56744E-04	5.68021464
3.60874E-04	5.64385133
3.62250E-04	5.63177478
3.65003E-04	5.60210898
3.70508E-04	5.54304775
3.73261E-04	5.51365438
3.76014E-04	5.48436988
3.78766E-04	5.44843455
3.81519E-04	5.41264366
3.84272E-04	5.37702068
3.87025E-04	5.34159422
3.90121E-04	5.29289844
3.92186E-04	5.26063038
3.94251E-04	5.22854493
3.95283E-04	5.21260616
3.96315E-04	5.19265117
3.98380E-04	5.15298219
4.00444E-04	5.11359337
4.02509E-04	5.07453328
4.03541E-04	5.05517051
4.04057E-04	5.04285141
4.05606E-04	5.00614156
4.07154E-04	4.96971426
4.08702E-04	4.93361145
4.09735E-04	4.90979275
4.10251E-04	4.89505585
4.11799E-04	4.85128048
4.12953E-04	4.81897657
4.14108E-04	4.7869873
4.15262E-04	4.74886738
4.16416E-04	4.71117174
4.17581E-04	4.67359507
4.18746E-04	4.62867161
4.19911E-04	4.58437334
4.21076E-04	4.54079895
4.22183E-04	4.49035024
4.23013E-04	4.45308891
4.23843E-04	4.41639361
4.24396E-04	4.39235123
4.24673E-04	4.37772548
4.25503E-04	4.33456346
4.26246E-04	4.29663074
4.26493E-04	4.28422941
4.26988E-04	4.2549324
4.27731E-04	4.21179977
4.28474E-04	4.16960966
4.29216E-04	4.12002436
4.29988E-04	4.06979633
4.30513E-04	4.03672911
4.30775E-04	4.01683075
4.31561E-04	3.95898782
4.32085E-04	3.92161068
4.32610E-04	3.87795719
4.33134E-04	3.83550992
4.33658E-04	3.79441829
4.34124E-04	3.75254821
4.34590E-04	3.71202633
4.34707E-04	3.70227331
4.35056E-04	3.66825601
4.35522E-04	3.62459611
4.35755E-04	3.60372265
4.35988E-04	3.57911447
4.36454E-04	3.53206328
4.36804E-04	3.49861951
4.36920E-04	3.48526447
4.37386E-04	3.43464335
4.37852E-04	3.38726205
4.37867E-04	3.38546905
4.38347E-04	3.33021044
4.38668E-04	3.29587717
4.38813E-04	3.28130887
4.38988E-04	3.26030312
4.39308E-04	3.22433576
4.39454E-04	3.20927364
4.39629E-04	3.18799206
4.39949E-04	3.15213807
4.40095E-04	3.13765454
4.40342E-04	3.10808818
4.40706E-04	3.07035237
4.40735E-04	3.06671741
4.40998E-04	3.03795035
4.41260E-04	3.01275385
4.41289E-04	3.01039663
4.41522E-04	2.9862381
4.41784E-04	2.96351277
4.41871E-04	2.95760296
4.42046E-04	2.94201493
4.42279E-04	2.92593024
4.42308E-04	2.92453851
4.42512E-04	2.91078846
4.42745E-04	2.90061228
4.42978E-04	2.89147861
4.43211E-04	2.88935607
4.43255E-04	2.89044414
4.43444E-04	2.89101997
4.43662E-04	2.90010453
4.43677E-04	2.90043659
4.43910E-04	2.91596103
4.44070E-04	2.9335694
4.44085E-04	2.93492588
4.44260E-04	2.95847786
4.44434E-04	2.99013144
4.44478E-04	3.00030954
4.44609E-04	3.02900807
4.44784E-04	3.07743663
4.44959E-04	3.13730591
4.45133E-04	3.2100938
4.45308E-04	3.29751807
4.45494E-04	3.40869862
4.45519E-04	3.4269309
4.45679E-04	3.54390392
4.45738E-04	3.59431341
4.45865E-04	3.70684592
4.45905E-04	3.74737952
4.45989E-04	3.83379866
4.46036E-04	3.88816624
4.46113E-04	3.97742784
4.46124E-04	3.99160035
4.46196E-04	4.08729318
4.46236E-04	4.14071143
4.46287E-04	4.21744147
4.46360E-04	4.32870238
4.46400E-04	4.39069681
4.46415E-04	4.41640173
4.46480E-04	4.533459
4.46524E-04	4.61241345
4.46553E-04	4.66558417
4.46568E-04	4.69573241
4.46608E-04	4.77939327
4.46644E-04	4.85611893
4.46681E-04	4.93352541
4.46706E-04	4.9882161
4.46717E-04	5.01465789
4.46748E-04	5.09018004
4.46786E-04	5.18427999
4.46824E-04	5.27933457
4.46848E-04	5.33874324
4.46855E-04	5.35895893
4.46892E-04	5.46093976
4.46910E-04	5.51231268
4.46937E-04	5.58987686
4.46954E-04	5.63678621
4.46964E-04	5.6712563
4.46995E-04	5.76971616
4.47021E-04	5.85146133
4.47046E-04	5.93383411
4.47072E-04	6.01686216
4.47085E-04	6.0587309
4.47099E-04	6.11169216
4.47128E-04	6.21851902
4.47157E-04	6.3263299
4.47187E-04	6.43517515
4.47201E-04	6.49010837
4.47212E-04	6.53650799
4.47238E-04	6.64564098
4.47270E-04	6.78730044
4.47303E-04	6.93054727
4.47325E-04	7.02697857
4.47350E-04	7.14046486
4.47369E-04	7.22231892
4.47376E-04	7.25904983
4.47405E-04	7.40740196
4.47434E-04	7.55735022
4.47461E-04	7.69945954
4.47478E-04	7.78564877
4.47489E-04	7.84871742
4.47518E-04	8.01870019
4.47551E-04	8.21228107
4.47583E-04	8.40849808
4.47587E-04	8.43061094
4.47617E-04	8.62767937
4.47651E-04	8.85435795
4.47672E-04	9.00032404
4.47685E-04	9.09149586
4.47714E-04	9.3089337
4.47743E-04	9.52921572
4.47770E-04	9.73576606
4.47772E-04	9.75385959
4.47801E-04	9.99834089
4.47836E-04	10.2962065
4.47846E-04	10.3783005
4.47871E-04	10.615605
4.47906E-04	10.9466893
4.47926E-04	11.1433645
4.47941E-04	11.2948258
4.47976E-04	11.6648826
4.48007E-04	12.002719
4.48011E-04	12.0452583
4.48046E-04	12.4613305
4.48081E-04	12.8856555
4.48092E-04	13.0298829
4.48111E-04	13.2849262
4.48142E-04	13.7042572
4.48172E-04	14.1315038
4.48180E-04	14.2352566
4.48203E-04	14.5922325
4.48234E-04	15.0699728
4.48238E-04	15.1396984
4.48267E-04	15.6333193
4.48296E-04	16.138496
4.48302E-04	16.2460443
4.48337E-04	16.906836
4.48354E-04	17.2457429
4.48372E-04	17.6069328
4.48407E-04	18.3480385
4.48413E-04	18.474996
4.48442E-04	19.1523655
4.48471E-04	19.8487266
4.48477E-04	19.9978157
4.48512E-04	20.9175603
4.48529E-04	21.3914002
4.48547E-04	21.8993637
4.48582E-04	22.9462961
4.48587E-04	23.1265291
4.48617E-04	24.0939119
4.48646E-04	25.0932651
4.48652E-04	25.3065023
4.48687E-04	26.6286831
4.48689E-04	26.7428596
4.48721E-04	28.0705142
4.48733E-04	28.571061
4.48756E-04	29.6312532
4.48777E-04	30.593665
4.48791E-04	31.3228376
4.48816E-04	32.6023247
4.48820E-04	32.8346406
4.48842E-04	34.0673869
4.48864E-04	35.3368233
4.48869E-04	35.6068005
4.48895E-04	37.2744112
4.48908E-04	38.1342382
4.48921E-04	39.0487873
4.48947E-04	40.9343098
4.48952E-04	41.2588308
4.48973E-04	42.9845464
4.48995E-04	44.7657966
4.49000E-04	45.1454391
4.49026E-04	47.4956425
4.49039E-04	48.7099802
4.49052E-04	50.0035317
4.49078E-04	52.6758802
4.49083E-04	53.1365504
4.49104E-04	55.5893056
4.49126E-04	58.1251772
4.49131E-04	58.6659233
4.49157E-04	62.0179308
4.49170E-04	63.7521018
4.49183E-04	65.5994065
4.49209E-04	69.4191448
4.49214E-04	70.0783203
4.49236E-04	73.5474948
4.49243E-04	74.7441495
4.49262E-04	77.9864641
4.49272E-04	79.7929787
4.49288E-04	82.7507484
4.49301E-04	85.2541302
4.49314E-04	87.8618477
4.49330E-04	91.1583124
4.49340E-04	93.3428786
4.49359E-04	97.5375115
4.49367E-04	99.2169562
4.49388E-04	104.424908
4.49393E-04	105.508812
4.49418E-04	111.85471
4.49419E-04	112.242896
4.49444E-04	119.053615
4.49447E-04	119.87968
4.49467E-04	125.882833
4.49476E-04	128.53125
4.49490E-04	133.112228
4.49505E-04	137.825337
4.49514E-04	140.758678
4.49534E-04	147.846902
4.49549E-04	153.094616
4.49563E-04	158.563385
4.49584E-04	166.490185
4.49592E-04	170.028219
4.49619E-04	181.09851
4.49636E-04	188.775707
4.49653E-04	196.836782
4.49680E-04	209.396383
4.49688E-04	213.783633
4.49723E-04	231.98503
4.49758E-04	251.696638
4.49767E-04	256.799194
4.49793E-04	272.747243
4.49811E-04	283.721586
4.49825E-04	293.228308
4.49854E-04	312.871358
4.49866E-04	321.017229
4.49898E-04	344.200843
4.49907E-04	350.757813
4.49948E-04	382.34852
4.49951E-04	384.674335
4.49988E-04	415.97288
4.50003E-04	428.347348
4.50029E-04	451.298789
4.50055E-04	474.824856
4.50070E-04	488.283081
4.50128E-04	543.570124
4.50131E-04	546.426362
4.50201E-04	616.877626
4.50387E-04	809.491219
4.50440E-04	862.26245
4.50475E-04	896.524702
4.50516E-04	934.9192
4.50530E-04	948.054844
4.50583E-04	993.259819
4.50585E-04	995.638444
4.50633E-04	1031.71982
4.50654E-04	1046.71181
4.50680E-04	1064.45473
4.50700E-04	1076.17919
4.50725E-04	1090.55932
4.50746E-04	1100.93793
4.50788E-04	1119.38292
4.50795E-04	1121.95821
4.50835E-04	1134.15647
4.50844E-04	1136.32362
4.50899E-04	1145.33645
4.50902E-04	1145.56581
4.50942E-04	1146.15859
4.50956E-04	1145.51333
4.50989E-04	1141.80263
4.51003E-04	1139.35456
4.51034E-04	1131.71684
4.51058E-04	1124.45179
4.51073E-04	1119.19738
4.51103E-04	1106.91727
4.51121E-04	1098.41489
4.51154E-04	1080.96223
4.51171E-04	1071.08837
4.51209E-04	1047.01212
4.51223E-04	1036.93856
4.51267E-04	1004.68687
4.51279E-04	995.514176
4.51325E-04	956.958727
4.51337E-04	946.856657
4.51383E-04	904.645935
4.51436E-04	855.406736
4.51459E-04	833.001237
4.51628E-04	666.259186
4.51686E-04	609.891024
4.51695E-04	601.623693
4.51748E-04	553.140042
4.51774E-04	529.501691
4.51800E-04	506.542453
4.51832E-04	479.313208
4.51852E-04	462.498896
4.51890E-04	432.211805
4.51893E-04	429.962431
4.51937E-04	397.250193
4.51949E-04	388.814212
4.51981E-04	366.432396
4.51992E-04	358.582028
4.52024E-04	337.708687
4.52036E-04	330.403513
4.52068E-04	311.017433
4.52078E-04	305.092935
4.52112E-04	286.317312
4.52117E-04	283.182166
4.52152E-04	265.050021
4.52157E-04	262.873806
4.52193E-04	245.425489
4.52196E-04	244.086764
4.52234E-04	227.372537
4.52235E-04	226.753192
4.52265E-04	214.876602
4.52275E-04	210.855849
4.52295E-04	203.148176
4.52314E-04	196.230938
4.52326E-04	192.154382
4.52353E-04	182.804186
4.52356E-04	181.86237
4.52387E-04	172.3175
4.52393E-04	170.561528
4.52417E-04	163.433551
4.52432E-04	159.389623
4.52449E-04	154.756083
4.52471E-04	149.186764
4.52484E-04	146.002585
4.52514E-04	139.213417
4.52519E-04	137.923013
4.52554E-04	130.497797
4.52557E-04	129.903212
4.52589E-04	123.706698
4.52601E-04	121.542394
4.52624E-04	117.439139
4.52645E-04	113.991102
4.52659E-04	111.65527
4.52688E-04	107.169017
4.52694E-04	106.317375
4.52729E-04	101.41029
4.52732E-04	101.016659
4.52764E-04	96.9123613
4.52776E-04	95.4756473
4.52799E-04	92.7708103
4.52834E-04	88.8770797
4.52840E-04	88.2700938
4.52883E-04	83.9214375
4.52892E-04	83.0891063
4.52927E-04	79.9758913
4.52950E-04	77.9883239
4.52971E-04	76.3575115
4.53009E-04	73.4550893
4.53014E-04	73.0351607
4.53058E-04	70.0141969
4.53067E-04	69.4327723
4.53102E-04	67.244357
4.53125E-04	65.8390695
4.53146E-04	64.6786021
4.53183E-04	62.6008504
4.53189E-04	62.3021161
4.53247E-04	59.4365644
4.53271E-04	58.3348732
4.53296E-04	57.2531263
4.53352E-04	54.8646698
4.53358E-04	54.6287442
4.53409E-04	52.7127494
4.53443E-04	51.4726648
4.53466E-04	50.7074495
4.53524E-04	48.8123414
4.53542E-04	48.2823963
4.53617E-04	46.0875215
4.53632E-04	45.6821009
4.53693E-04	44.1074492
4.53740E-04	42.9535576
4.53769E-04	42.2828628
4.53845E-04	40.6035842
4.53847E-04	40.5412861
4.53929E-04	38.9151047
4.53955E-04	38.4120856
4.54022E-04	37.2091085
4.54063E-04	36.5046033
4.54115E-04	35.6662773
4.54209E-04	34.230805
4.54225E-04	33.992297
4.54302E-04	32.9322179
4.54351E-04	32.2744145
4.54395E-04	31.7336885
4.54488E-04	30.6170295
4.54497E-04	30.5153989
4.54581E-04	29.6026379
4.54643E-04	28.9618147
4.54686E-04	28.5346891
4.54788E-04	27.5711
4.54803E-04	27.4441235
4.54919E-04	26.463133
4.55007E-04	25.7503136
4.55036E-04	25.5338746
4.55152E-04	24.6950483
4.55225E-04	24.1856725
4.55269E-04	23.9059776
4.55385E-04	23.1812895
4.55444E-04	22.8283872
4.55502E-04	22.5040699
4.55633E-04	21.7944651
4.55662E-04	21.6412036
4.55778E-04	21.0759613
4.55880E-04	20.595767
4.55924E-04	20.4073267
4.56070E-04	19.797331
4.56172E-04	19.3815764
4.56215E-04	19.2197573
4.56361E-04	18.6946427
4.56463E-04	18.335981
4.56507E-04	18.1971396
4.56652E-04	17.7457436
4.56812E-04	17.2609961
4.56827E-04	17.2179727
4.56987E-04	16.7914759
4.57155E-04	16.3567378
4.57162E-04	16.339477
4.57337E-04	15.9355302
4.57482E-04	15.6065718
4.57511E-04	15.5470199
4.57686E-04	15.1979281
4.57919E-04	14.7445541
4.57948E-04	14.6936708
4.58123E-04	14.3963952
4.58356E-04	14.00881
4.58589E-04	13.6676104
4.58793E-04	13.3759447
4.58822E-04	13.3381182
4.59055E-04	13.04247
4.59230E-04	12.8253729
4.59288E-04	12.7602958
4.59521E-04	12.5054993
4.59754E-04	12.2556306
4.59812E-04	12.1942682
4.59987E-04	12.030379
4.60249E-04	11.7892762
4.60395E-04	11.6578195
4.60511E-04	11.56348
4.60773E-04	11.3552196
4.60977E-04	11.1960301
4.61036E-04	11.155901
4.61429E-04	10.8909757
4.61822E-04	10.6322773
4.61851E-04	10.6134509
4.62084E-04	10.4829114
4.62434E-04	10.2904368
4.62725E-04	10.1328819
4.62783E-04	10.1051477
4.63133E-04	9.94177232
4.63482E-04	9.78108893
4.63540E-04	9.75470557
4.63832E-04	9.63889097
4.64181E-04	9.50202778
4.64589E-04	9.34507434
4.64705E-04	9.30589003
4.65113E-04	9.17131715
4.65579E-04	9.01994024
4.65637E-04	9.00130342
4.66045E-04	8.88645158
4.66511E-04	8.75720448
4.66686E-04	8.70940453
4.66977E-04	8.64047783
4.67443E-04	8.53177647
4.67909E-04	8.42448441
4.68259E-04	8.34496039
4.68375E-04	8.32237303
4.68870E-04	8.22761225
4.69394E-04	8.12851739
4.69831E-04	8.04688719
4.69919E-04	8.03277276
4.70443E-04	7.94910366
4.71229E-04	7.82528079
4.71404E-04	7.79815425
4.72016E-04	7.71678214
4.72802E-04	7.61366622
4.73501E-04	7.52316627
4.73588E-04	7.51351984
4.74375E-04	7.42784189
4.75161E-04	7.34313971
4.75598E-04	7.29655537
4.75948E-04	7.26522873
4.76734E-04	7.19550099
4.77579E-04	7.12135253
4.78452E-04	7.04536168
4.78744E-04	7.02024571
4.79326E-04	6.98098665
4.80200E-04	6.92267066
4.81074E-04	6.86484533
4.82239E-04	6.78842221
4.83404E-04	6.71267957
4.84452E-04	6.64504089
4.84569E-04	6.63911477
4.85734E-04	6.58036528
4.86891E-04	6.52242148
4.88042E-04	6.46522193
4.89083E-04	6.41376288
4.89193E-04	6.40923335
4.90343E-04	6.36185618
4.92200E-04	6.28595737
4.93482E-04	6.23389662
4.94337E-04	6.19938977
4.95405E-04	6.16299774
4.97328E-04	6.09796151
4.99251E-04	6.03332604
5.01174E-04	5.96903569
5.02028E-04	5.94059557
5.03107E-04	5.90982241
5.05039E-04	5.85492482
5.07630E-04	5.78170613
5.10234E-04	5.70846936
5.12404E-04	5.64770126
5.12838E-04	5.63646888
5.15442E-04	5.56935249
5.17829E-04	5.50804962
5.21084E-04	5.42476827
5.24990E-04	5.32527022
5.28896E-04	5.2261856
5.31934E-04	5.14942336
5.34972E-04	5.07290664
5.37576E-04	5.00763297
5.40180E-04	4.93603614
5.42784E-04	4.86474373
5.45388E-04	4.79366899
5.47992E-04	4.7228269
5.50596E-04	4.64403819
5.53851E-04	4.5459325
5.55804E-04	4.48731954
5.56238E-04	4.47260604
5.58842E-04	4.38465203
5.61446E-04	4.29707594
5.63616E-04	4.2244505
5.64050E-04	4.20809603
5.66654E-04	4.11045039
5.68824E-04	4.02953667
5.69258E-04	4.01152132
5.71862E-04	3.90405837
5.73815E-04	3.82393155
5.74032E-04	3.81507945
5.75768E-04	3.73659567
5.77721E-04	3.64881637
5.77938E-04	3.63912765
5.79674E-04	3.55389336
5.81627E-04	3.45866226
5.81844E-04	3.44816407
5.83580E-04	3.35524168
5.85533E-04	3.25155834
5.85750E-04	3.24014715
5.87486E-04	3.13848932
5.89439E-04	3.02526138
5.89656E-04	3.01282757
5.91392E-04	2.90351157
5.92260E-04	2.84951532
5.93345E-04	2.77672288
5.94647E-04	2.69036815
5.94864E-04	2.67613037
5.95949E-04	2.59881999
5.97251E-04	2.50706209
5.97468E-04	2.49195963
5.98553E-04	2.40999988
5.99855E-04	2.31294139
6.00072E-04	2.29700979
6.01157E-04	2.21138461
6.02025E-04	2.14400146
6.02459E-04	2.10820009
6.03761E-04	2.00271588
6.03978E-04	1.98550364
6.05063E-04	1.8941737
6.05931E-04	1.82258326
6.06040E-04	1.81313234
6.07016E-04	1.72968448
6.07884E-04	1.65711715
6.07993E-04	1.64757958
6.08969E-04	1.56378217
6.09946E-04	1.48229464
6.10163E-04	1.46476966
6.10922E-04	1.40130755
6.11899E-04	1.32270949
6.12821E-04	1.25162364
6.13716E-04	1.18597191
6.14231E-04	1.15033666
6.14611E-04	1.12521963
6.15316E-04	1.08190914
6.15506E-04	1.07089489
6.15994E-04	1.04526087
6.16401E-04	1.02542563
6.16618E-04	1.0162565
6.17107E-04	0.99763232
6.17283E-04	0.991600638
6.17500E-04	0.985764316
6.17839E-04	0.977939003
6.18137E-04	0.972257005
6.18178E-04	0.971762492
6.18449E-04	0.969568459
6.18680E-04	0.968552217
6.18707E-04	0.968535463
6.18924E-04	0.969749493
6.19127E-04	0.971672769
6.19277E-04	0.973607447
6.19304E-04	0.974176148
6.19473E-04	0.978307873
6.19643E-04	0.983039356
6.19765E-04	0.986837016
6.19900E-04	0.991459234
6.20009E-04	0.995474723
6.20117E-04	1.00072107
6.20226E-04	1.00627169
6.20307E-04	1.01064097
6.20409E-04	1.01635933
6.20504E-04	1.0219618
6.20524E-04	1.02321071
6.20572E-04	1.02657161
6.20640E-04	1.03151086
6.20707E-04	1.03659107
6.20765E-04	1.04102256
6.20836E-04	1.04664348
6.20884E-04	1.05048266
6.20931E-04	1.0543966
6.20992E-04	1.05954079
6.21053E-04	1.06481307
6.21111E-04	1.06991249
6.21162E-04	1.07451053
6.21202E-04	1.07826419
6.21213E-04	1.07932255
6.21257E-04	1.08398603
6.21297E-04	1.08835549
6.21338E-04	1.09278776
6.21374E-04	1.09671836
6.21409E-04	1.10069834
6.21445E-04	1.10472827
6.21480E-04	1.10880863
6.21516E-04	1.11294011
6.21553E-04	1.1173239
6.21589E-04	1.12156205
6.21623E-04	1.12564754
6.21657E-04	1.1297816
6.21691E-04	1.13396477
6.21731E-04	1.13905027
6.21772E-04	1.1442081
6.21799E-04	1.14768743
6.21840E-04	1.15296831
6.21881E-04	1.15885939
6.21916E-04	1.16407658
6.21952E-04	1.16935269
6.21991E-04	1.17519959
6.22036E-04	1.18215579
6.22082E-04	1.18921344
6.22131E-04	1.19690834
6.22182E-04	1.2049954
6.22233E-04	1.2132136
6.22274E-04	1.21988419
6.22315E-04	1.2266411
6.22376E-04	1.23694142
6.22420E-04	1.2445053
6.22467E-04	1.25277019
6.22477E-04	1.25456795
6.22515E-04	1.26165462
6.22562E-04	1.27080097
6.22613E-04	1.28074432
6.22667E-04	1.29151714
6.22721E-04	1.30246486
6.22776E-04	1.31359062
6.22837E-04	1.32632407
6.22904E-04	1.34074678
6.22966E-04	1.35399318
6.22972E-04	1.35555875
6.23040E-04	1.37151478
6.23115E-04	1.38942375
6.23196E-04	1.40939812
6.23277E-04	1.42984095
6.23359E-04	1.45076504
6.23454E-04	1.47580214
6.23508E-04	1.49047705
6.23535E-04	1.49821288
6.23617E-04	1.52194455
6.23725E-04	1.55442703
6.23834E-04	1.58790219
6.23942E-04	1.62240665
6.24051E-04	1.65956771
6.24159E-04	1.6978358
6.24268E-04	1.73725216
6.24369E-04	1.77528611
6.24376E-04	1.77790622
6.24505E-04	1.83008275
6.24640E-04	1.88702329
6.24776E-04	1.94607773
6.24891E-04	1.99801119
6.24919E-04	2.01063449
6.25013E-04	2.05674977
6.25136E-04	2.11798779
6.25258E-04	2.18125836
6.25325E-04	2.21758638
6.25380E-04	2.24771837
6.25508E-04	2.32168528
6.25651E-04	2.40644552
6.25732E-04	2.45677511
6.25793E-04	2.49586974
6.25936E-04	2.59057843
6.26078E-04	2.68895924
6.26139E-04	2.73277918
6.26221E-04	2.79322359
6.26363E-04	2.90307327
6.26505E-04	3.01721145
6.26546E-04	3.05111355
6.26648E-04	3.13871365
6.26790E-04	3.26611903
6.26953E-04	3.41846763
6.26980E-04	3.44471723
6.27143E-04	3.60982888
6.27306E-04	3.78244187
6.27360E-04	3.84264055
6.27468E-04	3.96716473
6.27631E-04	4.16245106
6.27794E-04	4.36679297
6.27810E-04	4.38819249
6.27957E-04	4.58677614
6.28119E-04	4.81772189
6.28168E-04	4.89030305
6.28282E-04	5.06435601
6.28445E-04	5.32474339
6.28526E-04	5.46121135
6.28608E-04	5.6014758
6.28781E-04	5.91552273
6.28884E-04	6.11237914
6.28976E-04	6.29368554
6.29172E-04	6.70020339
6.29280E-04	6.93968474
6.29367E-04	7.1365869
6.29562E-04	7.60634552
6.29606E-04	7.71721212
6.29758E-04	8.11483326
6.29931E-04	8.59753674
6.29953E-04	8.65943219
6.30148E-04	9.25127221
6.30257E-04	9.60122712
6.30344E-04	9.88830581
6.30539E-04	10.5759846
6.30582E-04	10.7389912
6.30734E-04	11.323798
6.30908E-04	12.0369797
6.30929E-04	12.1284799
6.31125E-04	13.0075554
6.31233E-04	13.5300123
6.31320E-04	13.9588838
6.31515E-04	14.9916939
6.31559E-04	15.2379162
6.31711E-04	16.1179001
6.31776E-04	16.5228687
6.31906E-04	17.3469109
6.31993E-04	17.9375721
6.32101E-04	18.6889961
6.32210E-04	19.4980024
6.32297E-04	20.1569174
6.32427E-04	21.2225458
6.32492E-04	21.7648082
6.32627E-04	22.9847249
6.32687E-04	23.5327154
6.32817E-04	24.8083486
6.32904E-04	25.7159771
6.33002E-04	26.7571373
6.33089E-04	27.75588
6.33181E-04	28.8342166
6.33273E-04	29.9986574
6.33360E-04	31.1126492
6.33457E-04	32.4684612
6.33539E-04	33.6172617
6.33642E-04	35.1946099
6.33718E-04	36.3767599
6.33826E-04	38.2088119
6.33891E-04	39.3272836
6.34011E-04	41.5476928
6.34054E-04	42.3687171
6.34174E-04	44.8121859
6.34217E-04	45.7150675
6.34336E-04	48.4077625
6.34380E-04	49.4030411
6.34499E-04	52.377859
6.34542E-04	53.4777777
6.34651E-04	56.4294651
6.34662E-04	56.7463625
6.34803E-04	60.9328291
6.34825E-04	61.6326645
6.34949E-04	65.7238413
6.34987E-04	67.0777379
6.35096E-04	71.0125986
6.35150E-04	73.156772
6.35242E-04	76.8667264
6.35313E-04	79.9190529
6.35340E-04	81.1149927
6.35438E-04	85.6853371
6.35476E-04	87.5994295
6.35573E-04	92.6129302
6.35638E-04	96.2559868
6.35703E-04	99.9571959
6.35747E-04	102.648848
6.35834E-04	108.102156
6.35855E-04	109.570678
6.35920E-04	114.034685
6.35964E-04	117.197935
6.36007E-04	120.404677
6.36072E-04	125.523284
6.36094E-04	127.253832
6.36181E-04	134.628687
6.36289E-04	144.713086
6.36295E-04	145.225004
6.36398E-04	155.839299
6.36409E-04	156.973989
6.36485E-04	165.531026
6.36506E-04	168.132076
6.36561E-04	174.733283
6.36615E-04	181.763203
6.36637E-04	184.615157
6.36702E-04	193.736734
6.36712E-04	195.276895
6.36788E-04	206.784852
6.36864E-04	219.249253
6.36875E-04	221.156308
6.36940E-04	232.746573
6.36962E-04	236.889487
6.37016E-04	247.38428
6.37049E-04	254.144979
6.37092E-04	263.282069
6.37136E-04	273.103811
6.37168E-04	280.57303
6.37222E-04	293.96953
6.37244E-04	299.404787
6.37309E-04	316.970205
6.37320E-04	319.936293
6.37380E-04	337.528138
6.37396E-04	342.382918
6.37450E-04	360.251085
6.37515E-04	381.941831
6.37521E-04	383.922009
6.37575E-04	403.949917
6.37591E-04	410.340252
6.37635E-04	427.577931
6.37662E-04	439.037189
6.37694E-04	452.948415
6.37732E-04	470.210129
6.37754E-04	480.189398
6.37803E-04	504.065611
6.37814E-04	509.433607
6.37873E-04	540.817396
6.37955E-04	587.373027
6.38036E-04	638.54828
6.38118E-04	694.688713
6.38199E-04	756.115572
6.38280E-04	823.109027
6.38356E-04	890.877158
6.38362E-04	896.032784
6.38429E-04	961.114073
6.38443E-04	974.909896
6.38503E-04	1036.16879
6.38524E-04	1059.88515
6.38600E-04	1143.68528
6.38633E-04	1181.96671
6.38698E-04	1259.23916
6.38741E-04	1313.48524
6.38785E-04	1368.18056
6.38888E-04	1504.47083
6.38915E-04	1540.5263
6.39219E-04	1961.47335
6.39293E-04	2062.93882
6.39349E-04	2136.67396
6.39408E-04	2212.24507
6.39479E-04	2298.23172
6.39505E-04	2328.93217
6.39583E-04	2412.32491
6.39603E-04	2432.7639
6.39661E-04	2487.00067
6.39679E-04	2502.73638
6.39731E-04	2543.12975
6.39766E-04	2569.28474
6.39818E-04	2600.46348
6.39852E-04	2620.39529
6.39893E-04	2636.8334
6.39939E-04	2654.40148
6.40000E-04	2663.59434
6.40077E-04	2672.74743
6.40094E-04	2671.03032
6.40153E-04	2663.59581
6.40165E-04	2660.20172
6.40234E-04	2638.77943
6.40252E-04	2630.62072
6.40321E-04	2596.21405
6.40343E-04	2582.29834
6.40397E-04	2546.20083
6.40438E-04	2512.98936
6.40495E-04	2466.36526
6.40529E-04	2432.94208
6.40592E-04	2371.12008
6.40660E-04	2296.71361
6.40718E-04	2230.95231
6.40790E-04	2143.30528
6.40858E-04	2059.01389
6.41120E-04	1722.5189
6.41215E-04	1600.40762
6.41269E-04	1533.769
6.41324E-04	1467.71567
6.41378E-04	1404.64042
6.41432E-04	1342.16546
6.41486E-04	1283.22637
6.41541E-04	1224.85752
6.41568E-04	1197.60472
6.41649E-04	1116.60436
6.41731E-04	1041.68153
6.41747E-04	1027.59532
6.41812E-04	971.848786
6.41877E-04	920.37563
6.41907E-04	896.988941
6.41942E-04	871.336721
6.41988E-04	838.095017
6.42007E-04	825.344886
6.42070E-04	783.842002
6.42072E-04	782.163949
6.42137E-04	742.270092
6.42151E-04	734.037448
6.42208E-04	701.934495
6.42232E-04	688.318568
6.42284E-04	661.648474
6.42314E-04	646.374826
6.42360E-04	624.480456
6.42395E-04	607.918896
6.42436E-04	590.19314
6.42477E-04	572.658711
6.42512E-04	558.608759
6.42566E-04	537.226466
6.42588E-04	529.370326
6.42664E-04	502.171289
6.42740E-04	477.51712
6.42761E-04	470.545594
6.42821E-04	452.962786
6.42859E-04	441.896041
6.42908E-04	428.822082
6.42957E-04	415.893781
6.42995E-04	406.636066
6.43054E-04	392.247644
6.43081E-04	386.213731
6.43152E-04	370.694394
6.43168E-04	367.383243
6.43250E-04	351.002271
6.43255E-04	349.992526
6.43342E-04	334.004099
6.43353E-04	332.024387
6.43429E-04	319.244222
6.43461E-04	313.820925
6.43526E-04	303.813538
6.43570E-04	297.213633
6.43635E-04	288.057522
6.43678E-04	282.02038
6.43743E-04	273.625738
6.43787E-04	268.088603
6.43852E-04	260.506331
6.43949E-04	249.251471
6.43960E-04	248.125813
6.44069E-04	236.986633
6.44112E-04	232.572941
6.44177E-04	226.552
6.44253E-04	219.593429
6.44286E-04	216.878127
6.44405E-04	207.019377
6.44427E-04	205.244179
6.44535E-04	197.214492
6.44600E-04	192.444837
6.44666E-04	188.110952
6.44774E-04	180.959173
6.44796E-04	179.654214
6.44926E-04	171.900854
6.44948E-04	170.620021
6.45056E-04	164.760177
6.45121E-04	161.274958
6.45186E-04	158.074783
6.45295E-04	152.797778
6.45382E-04	148.909562
6.45468E-04	145.066469
6.45555E-04	141.534024
6.45664E-04	137.164801
6.45729E-04	134.770485
6.45881E-04	129.240933
6.45902E-04	128.520231
6.46076E-04	122.812463
6.46098E-04	122.105415
6.46250E-04	117.577132
6.46315E-04	115.653614
6.46423E-04	112.710391
6.46532E-04	109.792763
6.46597E-04	108.180461
6.46749E-04	104.450563
6.46770E-04	103.967512
6.46966E-04	99.6593751
6.47074E-04	97.2866589
6.47161E-04	95.5921552
6.47356E-04	91.8128013
6.47400E-04	90.9795733
6.47552E-04	88.3630943
6.47725E-04	85.4021297
6.47845E-04	83.5662454
6.48051E-04	80.4316036
6.48138E-04	79.2359131
6.48333E-04	76.5707934
6.48376E-04	75.9831652
6.48593E-04	73.3121279
6.48702E-04	71.9883965
6.48854E-04	70.2970132
6.49027E-04	68.380714
6.49114E-04	67.5053968
6.49374E-04	64.9017081
6.49635E-04	62.5403152
6.49722E-04	61.759081
6.49895E-04	60.3254718
6.50069E-04	58.9071852
6.50416E-04	56.3467758
6.50590E-04	55.0809242
6.50742E-04	54.0964285
6.51067E-04	52.0046737
6.51110E-04	51.7278961
6.51393E-04	50.1211722
6.51631E-04	48.7720561
6.51718E-04	48.3279459
6.52044E-04	46.6752066
6.52071E-04	46.53842
6.52369E-04	45.1712565
6.52602E-04	44.1128733
6.53020E-04	42.3980381
6.53134E-04	41.9350371
6.53400E-04	40.9533023
6.53666E-04	39.9785484
6.53780E-04	39.5974202
6.54159E-04	38.3359239
6.54197E-04	38.2105755
6.54539E-04	37.1994154
6.54919E-04	36.0831097
6.54995E-04	35.861446
6.55488E-04	34.5906312
6.55792E-04	33.8153037
6.56058E-04	33.2130756
6.56546E-04	32.1156607
6.56601E-04	31.9945128
6.57035E-04	31.1301197
6.57414E-04	30.3786772
6.57523E-04	30.1860794
6.58011E-04	29.3250144
6.58228E-04	28.9445572
6.58499E-04	28.515817
6.58988E-04	27.7486076
6.59042E-04	27.6639186
6.59720E-04	26.7053154
6.59856E-04	26.5149061
6.60290E-04	25.9704587
6.60941E-04	25.1589634
6.60995E-04	25.0917463
6.61592E-04	24.4411847
6.62188E-04	23.7945949
6.62243E-04	23.7426837
6.62894E-04	23.1236303
6.63382E-04	22.6619488
6.63545E-04	22.524973
6.64196E-04	21.9800954
6.64575E-04	21.6638021
6.64847E-04	21.4615759
6.65498E-04	20.9786635
6.65823E-04	20.7385703
6.66474E-04	20.3091609
6.67125E-04	19.8826193
6.67451E-04	19.6912477
6.68427E-04	19.1208519
6.69404E-04	18.621634
6.70380E-04	18.1252376
6.71357E-04	17.6978085
6.72333E-04	17.2725584
6.73310E-04	16.9176318
6.74286E-04	16.5644147
6.75263E-04	16.2127198
6.75588E-04	16.0959414
6.76239E-04	15.9018183
6.77541E-04	15.5154457
6.78192E-04	15.3232002
6.78843E-04	15.1578162
6.80145E-04	14.8286887
6.80796E-04	14.6648436
6.81447E-04	14.5224317
6.82749E-04	14.2388719
6.83400E-04	14.0976503
6.84051E-04	13.97379
6.85353E-04	13.727059
6.86004E-04	13.6041507
6.86764E-04	13.4788318
6.88283E-04	13.2292314
6.89042E-04	13.1049121
6.89802E-04	12.9988431
6.91321E-04	12.7874755
6.92731E-04	12.5918581
6.93382E-04	12.5018806
6.94684E-04	12.3495884
6.96637E-04	12.1220858
6.97288E-04	12.0465226
6.98590E-04	11.9159849
7.00543E-04	11.7208883
7.01194E-04	11.6560637
7.02496E-04	11.5429303
7.04449E-04	11.3737784
7.05100E-04	11.3175558
7.06402E-04	11.2204877
7.08355E-04	11.0753146
7.10308E-04	10.9305231
7.12261E-04	10.8070257
7.14214E-04	10.6838336
7.15516E-04	10.6019167
7.16818E-04	10.5333446
7.19422E-04	10.3966258
7.22026E-04	10.2602785
7.23328E-04	10.1923173
7.26366E-04	10.0633078
7.29404E-04	9.93475137
7.32008E-04	9.82480588
7.34612E-04	9.73370663
7.37216E-04	9.64279134
7.39820E-04	9.55204098
7.45028E-04	9.40289963
7.48066E-04	9.31613457
7.51104E-04	9.22951148
7.54576E-04	9.14859517
7.58048E-04	9.06783043
7.61520E-04	8.98720012
7.64992E-04	8.92117395
7.68464E-04	8.85525459
7.71936E-04	8.78943089
7.75209E-04	8.72747717
7.76846E-04	8.70416209
7.81556E-04	8.63718875
7.86167E-04	8.57174913
7.90778E-04	8.50640697
7.95389E-04	8.44115612
7.99616E-04	8.38143362
8.00000E-04	8.37603102
8.00000E-04	15.8427234
8.73984E-04	15.4941364
9.76806E-04	15.0398494
1.00000E-03	14.9440604
1.09248E-03	14.6339622
1.22101E-03	14.2333938
1.28527E-03	14.0453079
1.34953E-03	13.8947656
1.50000E-03	13.5651288
1.67085E-03	13.2187043
1.79938E-03	13.0201076
2.00000E-03	12.7249613
2.12500E-03	12.5530369
2.25000E-03	12.4183011
2.50000E-03	12.1646929
2.75000E-03	11.9229303
3.00000E-03	11.7455305
3.34170E-03	11.5181477
3.59876E-03	11.3538082
3.75000E-03	11.2814
4.25000E-03	11.0551638
4.75000E-03	10.8400995
4.88403E-03	10.7977848
5.65519E-03	10.5682981
6.16930E-03	10.4219519
6.50000E-03	10.3535174
7.50000E-03	10.1575437
8.22573E-03	10.021621
8.98645E-03	9.92151459
1.09248E-02	9.68049704
1.12500E-02	9.65276453
1.28527E-02	9.52447077
1.49471E-02	9.36422516
1.54232E-02	9.32845924
1.75000E-02	9.22796897
2.00000E-02	9.11345669
2.23547E-02	9.01038474
2.31349E-02	8.98820529
2.75000E-02	8.87045429
3.17169E-02	8.76280596
3.34170E-02	8.72113695
3.59876E-02	8.68030951
4.11287E-02	8.60322493
4.75000E-02	8.5132358
5.28615E-02	8.44141568
5.43530E-02	8.42212167
6.00000E-02	8.37337593
6.68341E-02	8.31740688
7.19752E-02	8.27711767
8.00000E-02	8.2171018
9.00000E-02	8.14572201
9.50000E-02	8.11123596
1.00000E-01	8.08279555
1.00000E-01	8.08199555
1.12230E-01	8.05597882
1.24596E-01	8.0312684
1.33801E-01	8.01379844
1.50000E-01	7.9844116
1.60822E-01	7.96712476
1.65734E-01	7.95521049
1.82080E-01	7.91621929
2.00000E-01	7.87420536
2.17412E-01	7.83574978
2.50000E-01	7.7369355
3.00000E-01	7.58995786
3.08465E-01	7.56583329
3.72211E-01	7.32090954
4.60890E-01	7.0503942
4.62065E-01	7.04641226
4.64349E-01	7.03863523
4.68662E-01	7.02383153
4.72470E-01	7.01063924
4.77609E-01	6.99261241
4.79207E-01	6.98716521
4.88195E-01	6.95596214
4.88676E-01	6.95425389
5.00000E-01	6.91483967
5.15625E-01	6.84957979
5.15685E-01	6.84933116
5.30508E-01	6.78638292
5.30762E-01	6.78528889
5.45425E-01	6.72196433
5.49216E-01	6.70559599
5.51552E-01	6.69530359
5.59631E-01	6.66604195
5.61308E-01	6.6599662
5.73392E-01	6.61648998
5.74193E-01	6.61360876
5.87470E-01	6.5645669
5.93181E-01	6.54695129
6.01483E-01	6.52134703
6.05572E-01	6.50838827
6.12150E-01	6.48764799
6.24730E-01	6.4479832
6.30141E-01	6.43050814
6.45779E-01	6.38000795
6.46734E-01	6.37754112
6.47387E-01	6.37586562
6.50635E-01	6.36751972
6.63743E-01	6.33245341
6.79422E-01	6.2905117
6.94292E-01	6.25073165
7.00000E-01	6.2354632
7.08547E-01	6.20530864
7.09876E-01	6.20061889
7.26762E-01	6.14847607
7.43840E-01	6.09574439
7.48331E-01	6.08187483
7.59850E-01	6.04566646
7.74859E-01	5.99848369
7.84651E-01	5.96770382
7.88930E-01	5.9562687
8.00000E-01	5.92669268
8.08505E-01	5.90159357
8.26084E-01	5.84972024
8.42213E-01	5.8021237
8.60499E-01	5.74816285
8.61320E-01	5.74607672
8.78655E-01	5.70202728
8.93823E-01	5.66348404
9.00000E-01	5.64778881
9.13289E-01	5.61195919
9.24128E-01	5.58273581
9.43096E-01	5.53159493
9.62068E-01	5.48044442
9.62657E-01	5.47898076
9.75994E-01	5.44584863
1.00000E+00	5.38621082
1.02332E+00	5.32669547
1.03037E+00	5.30868786
1.03346E+00	5.30234644
1.03947E+00	5.28998564
1.04615E+00	5.27622804
1.05049E+00	5.26728106
1.06250E+00	5.2424011
1.06532E+00	5.2365595
1.06839E+00	5.23017834
1.06982E+00	5.227184
1.07527E+00	5.21585212
1.08068E+00	5.20457925
1.08209E+00	5.20165243
1.08606E+00	5.1933275
1.09016E+00	5.18473494
1.09141E+00	5.18211596
1.09673E+00	5.17097732
1.10202E+00	5.15989666
1.10450E+00	5.15470771
1.10727E+00	5.14884172
1.11138E+00	5.1401789
1.11250E+00	5.13780322
1.11770E+00	5.12683649
1.12286E+00	5.11592688
1.12799E+00	5.10508817
1.13215E+00	5.09631464
1.13310E+00	5.09430589
1.13399E+00	5.09242711
1.13755E+00	5.08500723
1.13817E+00	5.08369984
1.14322E+00	5.07316377
1.14380E+00	5.07195522
1.14823E+00	5.06268366
1.15238E+00	5.05400747
1.15322E+00	5.05225648
1.15324E+00	5.05221592
1.15818E+00	5.04188047
1.16211E+00	5.03364177
1.16276E+00	5.03222264
1.16311E+00	5.03159844
1.16539E+00	5.02746628
1.16800E+00	5.02273632
1.17051E+00	5.01819783
1.17220E+00	5.01511549
1.17287E+00	5.01387978
1.17332E+00	5.01306146
1.17771E+00	5.00502201
1.18253E+00	4.99620762
1.18731E+00	4.98745054
1.18867E+00	4.9849613
1.19150E+00	4.97973903
1.19204E+00	4.97873739
1.19207E+00	4.97867736
1.19680E+00	4.96989559
1.20150E+00	4.96115954
1.20372E+00	4.95704748
1.20559E+00	4.95353106
1.20618E+00	4.95242643
1.21040E+00	4.94444627
1.21082E+00	4.94364014
1.21544E+00	4.93491098
1.21654E+00	4.9328292
1.21706E+00	4.93186352
1.22004E+00	4.92625723
1.22375E+00	4.91926073
1.22460E+00	4.91764155
1.22914E+00	4.90898339
1.23365E+00	4.9003815
1.23507E+00	4.89767162
1.23814E+00	4.89182441
1.24260E+00	4.88332295
1.24703E+00	4.87486575
1.25000E+00	4.86920603
1.25144E+00	4.8667866
1.25582E+00	4.85941277
1.25898E+00	4.85410524
1.26018E+00	4.8520869
1.26451E+00	4.84479914
1.26881E+00	4.83755878
1.27309E+00	4.8303561
1.27877E+00	4.82080255
1.28213E+00	4.81514889
1.28441E+00	4.81132364
1.29000E+00	4.80191878
1.29163E+00	4.79917422
1.29554E+00	4.7924574
1.30105E+00	4.78301618
1.30457E+00	4.77698037
1.30651E+00	4.77364872
1.31193E+00	4.76435446
1.31730E+00	4.7551328
1.32264E+00	4.74598319
1.32630E+00	4.73969922
1.32675E+00	4.73892276
1.32754E+00	4.73773565
1.32793E+00	4.73712833
1.33318E+00	4.72900916
1.33839E+00	4.72095342
1.34356E+00	4.71296061
1.34735E+00	4.70709165
1.34869E+00	4.70503026
1.35377E+00	4.69716185
1.35379E+00	4.6971342
1.35882E+00	4.689298
1.36383E+00	4.6814954
1.36775E+00	4.67539576
1.36870E+00	4.67391666
1.36880E+00	4.67375031
1.36931E+00	4.67294743
1.37289E+00	4.66736203
1.37373E+00	4.66605391
1.37863E+00	4.6584495
1.38348E+00	4.6509045
1.38751E+00	4.64464829
1.38830E+00	4.64341844
1.39308E+00	4.63599088
1.39782E+00	4.62862134
1.40087E+00	4.62387427
1.40252E+00	4.62177302
1.40665E+00	4.61652195
1.40719E+00	4.61582963
1.41182E+00	4.60993267
1.41422E+00	4.60688251
1.41642E+00	4.60398079
1.42098E+00	4.59796626
1.42519E+00	4.5924087
1.42550E+00	4.5919987
1.42999E+00	4.58607778
1.43444E+00	4.58020312
1.43886E+00	4.57437435
1.44315E+00	4.56871223
1.44324E+00	4.56859113
1.44759E+00	4.5628531
1.45191E+00	4.5571599
1.45619E+00	4.55151118
1.46044E+00	4.54590659
1.46465E+00	4.54034578
1.46884E+00	4.53482841
1.46912E+00	4.53446059
1.47299E+00	4.52935416
1.47710E+00	4.52392268
1.48119E+00	4.51853365
1.48926E+00	4.50788155
1.49374E+00	4.50197436
1.49524E+00	4.4999963
1.50000E+00	4.49371789
1.50114E+00	4.49238789
1.50698E+00	4.48557906
1.51274E+00	4.47885866
1.51735E+00	4.473488
1.51844E+00	4.47220817
1.52407E+00	4.46564406
1.52964E+00	4.45914824
1.53514E+00	4.45273679
1.53974E+00	4.4473779
1.54058E+00	4.44639204
1.54595E+00	4.44012971
1.55126E+00	4.43393251
1.55651E+00	4.42781582
1.56120E+00	4.42235011
1.56170E+00	4.42176275
1.56682E+00	4.41578831
1.57189E+00	4.40987603
1.57690E+00	4.40404052
1.58155E+00	4.39861233
1.58185E+00	4.39826574
1.58495E+00	4.39464806
1.58674E+00	4.39271101
1.59045E+00	4.38868515
1.59157E+00	4.38746028
1.59635E+00	4.38226731
1.60080E+00	4.37741945
1.60106E+00	4.37713604
1.60107E+00	4.37712706
1.60573E+00	4.37203218
1.61035E+00	4.36699031
1.61490E+00	4.36201392
1.61794E+00	4.35869424
1.61941E+00	4.35707978
1.62386E+00	4.35219027
1.62600E+00	4.34983971
1.62826E+00	4.34735164
1.63260E+00	4.34257588
1.63690E+00	4.33784979
1.63816E+00	4.3364636
1.64258E+00	4.3315714
1.64816E+00	4.32537914
1.64937E+00	4.32403892
1.65244E+00	4.32063139
1.65366E+00	4.31940092
1.65907E+00	4.31392268
1.66440E+00	4.30853005
1.66964E+00	4.30322169
1.67129E+00	4.30155824
1.67480E+00	4.2979963
1.67521E+00	4.29758495
1.67979E+00	4.29330077
1.67988E+00	4.29321118
1.68489E+00	4.28852207
1.68841E+00	4.28521974
1.68981E+00	4.28390141
1.69183E+00	4.2820013
1.69466E+00	4.27934102
1.69943E+00	4.27485191
1.70360E+00	4.27092581
1.70412E+00	4.27043011
1.70875E+00	4.2660551
1.71109E+00	4.26383796
1.71220E+00	4.26279099
1.71330E+00	4.26173601
1.71778E+00	4.25744605
1.72219E+00	4.25322314
1.72653E+00	4.24906623
1.72664E+00	4.24895527
1.73080E+00	4.24494752
1.73501E+00	4.24089244
1.73761E+00	4.23838248
1.73915E+00	4.23690075
1.74322E+00	4.23297148
1.74921E+00	4.2271999
1.75000E+00	4.22643927
1.75507E+00	4.22149463
1.76078E+00	4.21592908
1.76195E+00	4.21479682
1.76638E+00	4.21047925
1.77182E+00	4.20517066
1.77716E+00	4.19997241
1.77863E+00	4.19853674
1.78235E+00	4.19540488
1.78292E+00	4.19492793
1.78380E+00	4.19418558
1.78744E+00	4.19110987
1.79240E+00	4.18692439
1.79585E+00	4.18400756
1.79725E+00	4.18296735
1.80198E+00	4.17945293
1.80202E+00	4.17942118
1.80385E+00	4.17805554
1.80661E+00	4.1759992
1.80821E+00	4.17480243
1.81111E+00	4.17262029
1.81364E+00	4.17072078
1.81841E+00	4.16711666
1.82409E+00	4.16282812
1.82837E+00	4.15959259
1.82958E+00	4.1586737
1.83004E+00	4.15832664
1.83288E+00	4.15616454
1.83491E+00	4.15460112
1.84007E+00	4.15063297
1.84507E+00	4.14678894
1.84580E+00	4.1462246
1.84982E+00	4.14308995
1.84991E+00	4.14302289
1.85460E+00	4.13936737
1.85557E+00	4.13860697
1.85910E+00	4.13582602
1.85914E+00	4.13579307
1.86354E+00	4.13228116
1.86781E+00	4.1288791
1.86859E+00	4.12825208
1.87194E+00	4.12558352
1.87788E+00	4.12084471
1.88357E+00	4.11630256
1.88897E+00	4.11199476
1.89221E+00	4.10941703
1.89415E+00	4.10786578
1.89714E+00	4.10548218
1.89906E+00	4.10423651
1.90341E+00	4.10141672
1.90377E+00	4.10118501
1.90823E+00	4.09828714
1.91197E+00	4.09586145
1.91251E+00	4.09550962
1.91522E+00	4.09374804
1.91798E+00	4.09195599
1.92310E+00	4.0886206
1.92791E+00	4.08549403
1.93242E+00	4.08256321
1.93398E+00	4.08154862
1.93608E+00	4.08018337
1.93664E+00	4.07981456
1.94147E+00	4.07665976
1.94252E+00	4.07596719
1.94779E+00	4.07246325
1.94789E+00	4.07239832
1.95560E+00	4.06719961
1.95756E+00	4.06587678
1.96115E+00	4.06345513
1.96379E+00	4.06167378
1.96600E+00	4.06017258
1.97025E+00	4.05729375
1.97560E+00	4.05367353
1.97878E+00	4.05152002
1.98007E+00	4.05064433
1.98505E+00	4.04727184
1.99039E+00	4.04365955
1.99520E+00	4.04040953
2.00000E+00	4.03716059
2.00170E+00	4.03573284
2.00340E+00	4.0344585
2.01088E+00	4.02844767
2.01845E+00	4.02236928
2.02332E+00	4.02001775
2.03125E+00	4.01618728
2.03349E+00	4.01510593
2.04030E+00	4.01113742
2.04615E+00	4.00772421
2.04713E+00	4.00715162
2.05355E+00	4.00340297
2.06152E+00	3.99874532
2.06606E+00	3.9960971
2.06839E+00	3.99473338
2.07295E+00	3.99206496
2.08859E+00	3.98290734
2.08971E+00	3.98225052
2.09016E+00	3.98198104
2.09085E+00	3.98157516
2.09580E+00	3.97865173
2.11062E+00	3.96990185
2.11138E+00	3.96945601
2.11926E+00	3.96478861
2.13090E+00	3.95790208
2.13215E+00	3.95713057
2.13641E+00	3.95450565
2.14519E+00	3.9491011
2.14678E+00	3.94829303
2.14773E+00	3.94781375
2.15238E+00	3.94545049
2.16738E+00	3.93782966
2.17220E+00	3.93538392
2.17345E+00	3.93474862
2.19596E+00	3.92331057
2.19743E+00	3.92255937
2.19807E+00	3.92223128
2.21179E+00	3.91515648
2.21469E+00	3.91366312
2.22313E+00	3.90931118
2.24740E+00	3.89679722
2.24854E+00	3.89621131
2.26302E+00	3.88875012
2.26636E+00	3.88687947
2.26971E+00	3.88484695
2.27092E+00	3.88438527
2.27711E+00	3.88203094
2.28340E+00	3.87962796
2.28453E+00	3.87919609
2.29011E+00	3.87705125
2.29371E+00	3.87566247
2.30694E+00	3.87055175
2.30976E+00	3.86945629
2.31578E+00	3.86709942
2.31681E+00	3.86669498
2.32957E+00	3.86170335
2.33573E+00	3.85897291
2.33716E+00	3.85833684
2.34731E+00	3.85383227
2.34850E+00	3.85330436
2.35429E+00	3.85073257
2.35787E+00	3.84911499
2.36773E+00	3.84466296
2.37794E+00	3.84004333
2.37888E+00	3.83961827
2.37928E+00	3.83943742
2.39187E+00	3.83500992
2.39738E+00	3.83302291
2.39869E+00	3.83255115
2.40769E+00	3.829296
2.41621E+00	3.82621618
2.43005E+00	3.82121662
2.43531E+00	3.81934169
2.44343E+00	3.81644621
2.44464E+00	3.81601576
2.45220E+00	3.81319924
2.46925E+00	3.80682486
2.47060E+00	3.80631921
2.47503E+00	3.80466497
2.48219E+00	3.80242061
2.48937E+00	3.80015987
2.49400E+00	3.79866311
2.50369E+00	3.79552751
2.50380E+00	3.79549181
2.51292E+00	3.7928796
2.51747E+00	3.79156871
2.52207E+00	3.79024493
2.53471E+00	3.78635506
2.53997E+00	3.78473724
2.54047E+00	3.78458268
2.54864E+00	3.78163441
2.56131E+00	3.77706307
2.56301E+00	3.77644713
2.56379E+00	3.77616691
2.56920E+00	3.77421333
2.57333E+00	3.7727096
2.58176E+00	3.77072007
2.58472E+00	3.77002329
2.59105E+00	3.76852733
2.60661E+00	3.76485321
2.60790E+00	3.76449765
2.61695E+00	3.76201086
2.62898E+00	3.75869189
2.63241E+00	3.75774634
2.63514E+00	3.75699364
2.64821E+00	3.75337313
2.65538E+00	3.75135717
2.66267E+00	3.74931214
2.66304E+00	3.74920725
2.67692E+00	3.74528412
2.69048E+00	3.74145886
2.69429E+00	3.7405305
2.69591E+00	3.7401357
2.69711E+00	3.73984174
2.70135E+00	3.73881085
2.71226E+00	3.73670329
2.71903E+00	3.73523317
2.72492E+00	3.73395025
2.73091E+00	3.73265043
2.73131E+00	3.73256269
2.73942E+00	3.73079249
2.75043E+00	3.7283841
2.76489E+00	3.72522855
2.76686E+00	3.72480001
2.77334E+00	3.72284724
2.77611E+00	3.72201255
2.78540E+00	3.71973674
2.79263E+00	3.71823467
2.79428E+00	3.717898
2.79436E+00	3.71788232
2.79988E+00	3.7167624
2.80721E+00	3.71550142
2.81455E+00	3.71423423
2.82006E+00	3.71328168
2.82099E+00	3.71312247
2.82470E+00	3.71248315
2.82930E+00	3.7116946
2.83200E+00	3.7112312
2.84041E+00	3.7097899
2.84256E+00	3.70942068
2.84528E+00	3.70895535
2.85300E+00	3.70762834
2.85902E+00	3.70659337
2.86224E+00	3.70602089
2.86837E+00	3.70493468
2.87964E+00	3.70294044
2.88211E+00	3.70250243
2.88699E+00	3.70162863
2.88975E+00	3.7011383
2.90771E+00	3.6979464
2.91941E+00	3.69587987
2.91976E+00	3.69601512
2.92012E+00	3.69612886
2.92765E+00	3.69465373
2.92999E+00	3.69419545
2.93078E+00	3.69403944
2.94734E+00	3.69081127
2.95349E+00	3.68959947
2.95550E+00	3.68920281
2.95979E+00	3.68836473
2.97355E+00	3.68689894
2.97775E+00	3.68644796
3.00000E+00	3.68409015
3.03124E+00	3.67810569
3.03205E+00	3.6780994
3.03514E+00	3.67758306
3.03823E+00	3.67703738
3.03862E+00	3.6770428
3.04476E+00	3.67712817
3.04639E+00	3.67714714
3.05170E+00	3.67721396
3.05777E+00	3.67729036
3.07761E+00	3.67745419
3.08355E+00	3.6775032
3.09007E+00	3.67751189
3.09085E+00	3.67751277
3.09090E+00	3.67751288
3.11527E+00	3.67756047
3.12099E+00	3.67757165
3.13302E+00	3.6775
3.14033E+00	3.67746324
3.14449E+00	3.67744116
3.15179E+00	3.67742749
3.15731E+00	3.67741712
3.16493E+00	3.67733648
3.17345E+00	3.67724554
3.19214E+00	3.67706659
3.19909E+00	3.67701023
3.20434E+00	3.67696755
3.22511E+00	3.67656007
3.23370E+00	3.67640258
3.23442E+00	3.67638924
3.24052E+00	3.67627492
3.25447E+00	3.67623624
3.26607E+00	3.67637058
3.27094E+00	3.67642698
3.27354E+00	3.67641918
3.28344E+00	3.67640253
3.31894E+00	3.67631427
3.32082E+00	3.67631211
3.32146E+00	3.67631112
3.32694E+00	3.67630201
3.33947E+00	3.67638389
3.34988E+00	3.67655103
3.35425E+00	3.67662118
3.36151E+00	3.67658807
3.40141E+00	3.67645937
3.40445E+00	3.67645465
3.41567E+00	3.67642882
3.42669E+00	3.67657579
3.43661E+00	3.67671991
3.45693E+00	3.67701266
3.46885E+00	3.67720823
3.48376E+00	3.6774465
3.49208E+00	3.67763357
3.49360E+00	3.67766793
3.49556E+00	3.6777225
3.50678E+00	3.67778336
3.53528E+00	3.67799622
3.54446E+00	3.67776807
3.55252E+00	3.67756135
3.55322E+00	3.67754488
3.56182E+00	3.67735019
3.56954E+00	3.67723997
3.58049E+00	3.67708237
3.59463E+00	3.67688406
3.60671E+00	3.67671085
3.60803E+00	3.67669477
3.61266E+00	3.67663634
3.61385E+00	3.6766214
3.61537E+00	3.67663211
3.63293E+00	3.67645632
3.65587E+00	3.6762339
3.66000E+00	3.67620255
3.66664E+00	3.67619076
3.67260E+00	3.67621424
3.67881E+00	3.67623792
3.69195E+00	3.67629195
3.69889E+00	3.67631818
3.70087E+00	3.67633049
3.70227E+00	3.67633766
3.70583E+00	3.6763616
3.70791E+00	3.67637557
3.71896E+00	3.67625357
3.75409E+00	3.67587759
3.75904E+00	3.67583591
3.76946E+00	3.67575595
3.77455E+00	3.67571876
3.78483E+00	3.6757018
3.80203E+00	3.67571502
3.81173E+00	3.67588611
3.82623E+00	3.6761475
3.83281E+00	3.67630647
3.83862E+00	3.67644606
3.84289E+00	3.67656291
3.85011E+00	3.6767578
3.85119E+00	3.67678698
3.85879E+00	3.67683114
3.89410E+00	3.67705234
3.90922E+00	3.67719436
3.93192E+00	3.67741848
3.95461E+00	3.67773036
4.00000E+00	3.67837685
4.05195E+00	3.68738674
4.05618E+00	3.68812093
4.07468E+00	3.69105378
4.11314E+00	3.69723817
4.11730E+00	3.6979476
4.13719E+00	3.70134931
4.16364E+00	3.7059375
4.16364E+00	3.7059375
4.17200E+00	3.70743293
4.20680E+00	3.71368206
4.21476E+00	3.71513442
4.22949E+00	3.7176524
4.23290E+00	3.71825331
4.28138E+00	3.72680239
4.29816E+00	3.72981168
4.30287E+00	3.73065833
4.30574E+00	3.73117523
4.31890E+00	3.73361043
4.34851E+00	3.73940282
4.35690E+00	3.74106964
4.36862E+00	3.74340515
4.39868E+00	3.74827236
4.41020E+00	3.74998041
4.41563E+00	3.75078724
4.42297E+00	3.75180164
4.46970E+00	3.75826393
4.46970E+00	3.75826393
4.47214E+00	3.75861376
4.47994E+00	3.75973405
4.48868E+00	3.76107724
4.52063E+00	3.76600794
4.55078E+00	3.77074361
4.55259E+00	3.77102887
4.56066E+00	3.77230611
4.59863E+00	3.77831733
4.60465E+00	3.77927095
4.60852E+00	3.77980548
4.63299E+00	3.78325728
4.64533E+00	3.78500671
4.65231E+00	3.78600191
4.65231E+00	3.78600191
4.65915E+00	3.78704858
4.70027E+00	3.79345452
4.70639E+00	3.79441191
4.71295E+00	3.79546115
4.74212E+00	3.80012607
4.77011E+00	3.80460674
4.77362E+00	3.80517025
4.77520E+00	3.8054357
4.79825E+00	3.80930873
4.81125E+00	3.81159495
4.82302E+00	3.81370824
4.84480E+00	3.81770238
4.85549E+00	3.81967063
4.88370E+00	3.82488948
4.90562E+00	3.8289551
4.92774E+00	3.83313815
5.00000E+00	3.84686915
5.10263E+00	3.87337607
5.14753E+00	3.88501101
5.16652E+00	3.88998499
5.19243E+00	3.89678968
5.21829E+00	3.90360585
5.23318E+00	3.90761411
5.27100E+00	3.91802874
5.30538E+00	3.92759317
5.31014E+00	3.92892255
5.39492E+00	3.95265059
5.39992E+00	3.95384586
5.40361E+00	3.9547333
5.40851E+00	3.95593637
5.41517E+00	3.95759261
5.47479E+00	3.97147925
5.48503E+00	3.97387117
5.50519E+00	3.97861671
5.55580E+00	3.99059378
5.55584E+00	3.99060282
5.60948E+00	4.0035049
5.61376E+00	4.00456687
5.64993E+00	4.01356751
5.66367E+00	4.01699403
5.68779E+00	4.02304845
5.68843E+00	4.02321193
5.74594E+00	4.03794329
5.77363E+00	4.04510913
5.77710E+00	4.04600799
5.80145E+00	4.05234734
5.82103E+00	4.05750439
5.82941E+00	4.0595893
5.84739E+00	4.06407075
5.88573E+00	4.07364316
5.96829E+00	4.09431624
6.00000E+00	4.10225615
6.13347E+00	4.13760901
6.16852E+00	4.14651664
6.22000E+00	4.15962516
6.23574E+00	4.16330023
6.31319E+00	4.18169271
6.35010E+00	4.19047243
6.41860E+00	4.20685028
6.43134E+00	4.20992009
6.47830E+00	4.2213895
6.48855E+00	4.22389619
6.57350E+00	4.24479249
6.60683E+00	4.25302712
6.61280E+00	4.25450247
6.65310E+00	4.26452527
6.66677E+00	4.26793152
6.72582E+00	4.2827059
6.74856E+00	4.28842704
6.75629E+00	4.29038469
6.83135E+00	4.30964346
6.84917E+00	4.31422452
6.88711E+00	4.32399632
7.00000E+00	4.35308293
7.16999E+00	4.37685738
7.23762E+00	4.38633784
7.31543E+00	4.39734831
7.32880E+00	4.39924358
7.43750E+00	4.41465606
7.48088E+00	4.42098756
7.49113E+00	4.42248646
7.50000E+00	4.42379405
7.56179E+00	4.43289842
7.62500E+00	4.44221219
7.65541E+00	4.44669305
7.66904E+00	4.44870412
7.67188E+00	4.44912505
7.69238E+00	4.45216937
7.70200E+00	4.4535964
7.70665E+00	4.45428761
7.71124E+00	4.45496803
7.71575E+00	4.45563781
7.72019E+00	4.45629713
7.72456E+00	4.45694615
7.72886E+00	4.45758503
7.73310E+00	4.45821392
7.73727E+00	4.45883299
7.74138E+00	4.45944239
7.74542E+00	4.46004226
7.74940E+00	4.46063276
7.75000E+00	4.46072247
7.75331E+00	4.46121403
7.75717E+00	4.46178622
7.76096E+00	4.46234947
7.76470E+00	4.46290392
7.76563E+00	4.46304195
7.76837E+00	4.46344971
7.77377E+00	4.4642514
7.77650E+00	4.46465585
7.77674E+00	4.46469194
7.77906E+00	4.46503683
7.78421E+00	4.4658024
7.78692E+00	4.4662046
7.78926E+00	4.46655207
7.79417E+00	4.46728232
7.79680E+00	4.46767356
7.79898E+00	4.46799739
7.80367E+00	4.46869394
7.80628E+00	4.46908164
7.80826E+00	4.46937602
7.81273E+00	4.47004042
7.81711E+00	4.47069102
7.81838E+00	4.47088106
7.82137E+00	4.47132477
7.82555E+00	4.47194534
7.82961E+00	4.47254984
7.82974E+00	4.47256801
7.83277E+00	4.47301928
7.83620E+00	4.47352984
7.84038E+00	4.47415318
7.84132E+00	4.47429304
7.84627E+00	4.4750324
7.85035E+00	4.47564063
7.85108E+00	4.47574865
7.85573E+00	4.47644251
7.85971E+00	4.47703511
7.86024E+00	4.4771147
7.86461E+00	4.47776587
7.86847E+00	4.47834244
7.86884E+00	4.4783967
7.87294E+00	4.47900782
7.87691E+00	4.47959984
7.88055E+00	4.48014257
7.88075E+00	4.48017335
7.88448E+00	4.48072895
7.88812E+00	4.48127185
7.88984E+00	4.48152834
7.89163E+00	4.4817952
7.89498E+00	4.48229551
7.89985E+00	4.48302315
7.90157E+00	4.48328108
7.90452E+00	4.48372063
7.90895E+00	4.48438215
7.91070E+00	4.48464445
7.91319E+00	4.48501626
7.91722E+00	4.48561769
7.92108E+00	4.48619419
7.92187E+00	4.48631162
7.92488E+00	4.48676143
7.92601E+00	4.48693107
7.93064E+00	4.48762239
7.93163E+00	4.48777132
7.93497E+00	4.4882705
7.93904E+00	4.48887811
7.94285E+00	4.48944774
7.94417E+00	4.48964515
7.94815E+00	4.49024017
7.95291E+00	4.49095178
7.95420E+00	4.491145
7.95994E+00	4.49200394
7.96260E+00	4.49240032
7.96495E+00	4.49275247
7.96933E+00	4.49340743
7.97195E+00	4.49379829
7.97317E+00	4.49398052
7.97799E+00	4.49470137
7.98197E+00	4.4952961
7.98202E+00	4.49530469
7.98652E+00	4.49597656
7.98989E+00	4.49648046
7.99399E+00	4.49709349
7.99494E+00	4.49723632
8.00000E+00	4.49799218
8.00482E+00	4.49812634
8.01430E+00	4.49839047
8.02349E+00	4.49864634
8.02801E+00	4.49877224
8.03239E+00	4.49889421
8.04101E+00	4.49913435
8.05348E+00	4.49948144
8.06530E+00	4.49981065
8.07663E+00	4.50012621
8.08737E+00	4.5004255
8.09768E+00	4.50071239
8.10745E+00	4.5009845
8.11084E+00	4.50107902
8.11681E+00	4.50124533
8.12318E+00	4.50142273
8.12878E+00	4.50157865
8.13475E+00	4.50174496
8.14000E+00	4.50189113
8.14560E+00	4.50204706
8.15052E+00	4.50218409
8.15577E+00	4.50233027
8.16038E+00	4.50245874
8.16963E+00	4.50271622
8.16992E+00	4.50272425
8.17112E+00	4.50275769
8.17830E+00	4.50295888
8.18262E+00	4.5030801
8.19023E+00	4.50329338
8.19428E+00	4.5034068
8.20118E+00	4.5036003
8.20809E+00	4.50379381
8.21102E+00	4.50387592
8.22004E+00	4.50412882
8.22061E+00	4.50414494
8.23107E+00	4.50443807
8.23158E+00	4.50445217
8.23907E+00	4.50466217
8.24073E+00	4.50470935
8.24564E+00	4.50484918
8.25312E+00	4.50506174
8.25348E+00	4.50507197
8.26304E+00	4.5053438
8.26719E+00	4.50546185
8.27134E+00	4.50557988
8.28058E+00	4.50584278
8.28132E+00	4.50586391
8.29048E+00	4.50612446
8.29096E+00	4.50613805
8.30831E+00	4.50663149
8.31715E+00	4.50681883
8.31912E+00	4.50686094
8.32444E+00	4.50697454
8.32976E+00	4.50708814
8.33055E+00	4.50710509
8.34023E+00	4.50731182
8.35054E+00	4.507532
8.36069E+00	4.50774874
8.36085E+00	4.50775218
8.37068E+00	4.5079621
8.38051E+00	4.50817212
8.38082E+00	4.50817878
8.39495E+00	4.50848062
8.40017E+00	4.50859206
8.40910E+00	4.5087827
8.41891E+00	4.50899242
8.42287E+00	4.50907696
8.43636E+00	4.50936511
8.43707E+00	4.50938027
8.44951E+00	4.5096458
8.45466E+00	4.509756
8.46237E+00	4.50992065
8.47171E+00	4.51011999
8.47491E+00	4.51018838
8.48284E+00	4.51035783
8.48718E+00	4.51045122
8.48822E+00	4.51047344
8.49309E+00	4.51057836
8.49914E+00	4.51071052
8.50421E+00	4.51082132
8.51085E+00	4.51096642
8.51970E+00	4.51115995
8.52225E+00	4.51121569
8.53342E+00	4.51145978
8.53471E+00	4.51148801
8.54430E+00	4.51169755
8.55629E+00	4.51195975
8.56191E+00	4.51208237
8.56372E+00	4.51212207
8.57560E+00	4.51238164
8.57698E+00	4.51241197
8.58886E+00	4.51267155
8.59661E+00	4.51284092
8.60171E+00	4.51295241
8.61415E+00	4.5132245
8.61542E+00	4.51325208
8.62621E+00	4.51348808
8.63325E+00	4.51364206
8.63789E+00	4.51374343
8.64921E+00	4.5139908
8.65035E+00	4.51401588
8.66017E+00	4.51423044
8.66404E+00	4.514315
8.66657E+00	4.51437078
8.67077E+00	4.51446303
8.67079E+00	4.51446353
8.68108E+00	4.51469304
8.68212E+00	4.5147163
8.69104E+00	4.51491537
8.70199E+00	4.51515952
8.70538E+00	4.51523509
8.71911E+00	4.51554155
8.72061E+00	4.51557504
8.73214E+00	4.51583223
8.73808E+00	4.51596459
8.74463E+00	4.51611086
8.75445E+00	4.5163298
8.75648E+00	4.51637513
8.76783E+00	4.51662845
8.76979E+00	4.51667219
8.77860E+00	4.51686872
8.78892E+00	4.51709903
8.79114E+00	4.51714851
8.80212E+00	4.51739336
8.81032E+00	4.51757626
8.81448E+00	4.51766929
8.82608E+00	4.51792798
8.83042E+00	4.51802486
8.83695E+00	4.51817129
8.83866E+00	4.51820972
8.84714E+00	4.51839988
8.85883E+00	4.51866211
8.86132E+00	4.51871789
8.87405E+00	4.51900347
8.87648E+00	4.51905796
8.88889E+00	4.51933643
8.89192E+00	4.51940497
8.89287E+00	4.51942657
8.90626E+00	4.5197298
8.91134E+00	4.51984475
8.91798E+00	4.51999514
8.92759E+00	4.52021284
8.92823E+00	4.52022731
8.94113E+00	4.52051935
8.94569E+00	4.52062278
8.95192E+00	4.52076378
8.95927E+00	4.52093024
8.96394E+00	4.521036
8.97682E+00	4.52132766
8.97964E+00	4.52139145
8.98841E+00	4.52159017
9.00000E+00	4.52185268
9.01563E+00	4.5206542
9.03101E+00	4.51947444
9.03125E+00	4.51945571
9.04615E+00	4.51831312
9.06105E+00	4.51716995
9.06152E+00	4.51713367
9.07572E+00	4.51604466
9.09016E+00	4.51493695
9.09085E+00	4.51488421
9.10438E+00	4.51384656
9.11837E+00	4.5127732
9.11926E+00	4.51270508
9.12500E+00	4.51226496
9.13893E+00	4.5111966
9.14678E+00	4.51059407
9.15906E+00	4.50965278
9.17866E+00	4.50814896
9.18636E+00	4.50755852
9.19786E+00	4.5066764
9.20984E+00	4.50575818
9.21657E+00	4.50524279
9.22430E+00	4.50465051
9.23438E+00	4.50387898
9.23488E+00	4.50384033
9.24021E+00	4.50343207
9.24634E+00	4.50296361
9.25272E+00	4.50247574
9.25515E+00	4.50229009
9.26028E+00	4.50189745
9.26386E+00	4.50162359
9.27019E+00	4.50114015
9.27247E+00	4.50096574
9.28098E+00	4.50031475
9.28720E+00	4.49983918
9.28939E+00	4.49967221
9.29477E+00	4.49926041
9.29770E+00	4.49903636
9.30387E+00	4.49856527
9.30591E+00	4.49840878
9.31404E+00	4.49778773
9.32010E+00	4.49732437
9.32205E+00	4.49717474
9.32749E+00	4.49675936
9.32999E+00	4.49656814
9.33193E+00	4.49641935
9.33599E+00	4.49610931
9.33782E+00	4.49596948
9.34557E+00	4.49537706
9.35147E+00	4.49492585
9.35322E+00	4.49479234
9.35884E+00	4.49436229
9.36079E+00	4.49421371
9.36663E+00	4.493767
9.36826E+00	4.4936426
9.37565E+00	4.49307744
9.38295E+00	4.49251962
9.38627E+00	4.49226586
9.38858E+00	4.49208888
9.39017E+00	4.49196761
9.39730E+00	4.49142277
9.40435E+00	4.4908836
9.40545E+00	4.49079985
9.41131E+00	4.49035144
9.41709E+00	4.48990977
9.41820E+00	4.48982482
9.42403E+00	4.48937968
9.42500E+00	4.48930505
9.43173E+00	4.48879069
9.43838E+00	4.48828301
9.44203E+00	4.48800393
9.44495E+00	4.48778062
9.45144E+00	4.48728475
9.45352E+00	4.48712514
9.45786E+00	4.48679405
9.45946E+00	4.4866712
9.46633E+00	4.48614661
9.47467E+00	4.48550928
9.47636E+00	4.48538016
9.48287E+00	4.48488193
9.48683E+00	4.48457963
9.48768E+00	4.48451495
9.49095E+00	4.48426563
9.49272E+00	4.48413128
9.49465E+00	4.48398471
9.49891E+00	4.48366059
9.50000E+00	4.48357763
9.50674E+00	4.48306538
9.50857E+00	4.48292596
9.51445E+00	4.48247948
9.51970E+00	4.48208005
9.52203E+00	4.48190274
9.52393E+00	4.48175852
9.52950E+00	4.48133502
9.53125E+00	4.48120203
9.53491E+00	4.48092364
9.53685E+00	4.48077618
9.53763E+00	4.48071676
9.53881E+00	4.4806276
9.54034E+00	4.48051095
9.54393E+00	4.48023798
9.54409E+00	4.48022608
9.54750E+00	4.47996713
9.54972E+00	4.47979814
9.55103E+00	4.47969841
9.55121E+00	4.47968458
9.55322E+00	4.47953206
9.55454E+00	4.47943178
9.55802E+00	4.47916725
9.55822E+00	4.47915156
9.56147E+00	4.47890478
9.56490E+00	4.47864436
9.56513E+00	4.47862687
9.56524E+00	4.47861799
9.56718E+00	4.4784708
9.56830E+00	4.478386
9.57167E+00	4.47812967
9.57192E+00	4.47811043
9.57502E+00	4.47787534
9.57786E+00	4.47765907
9.57834E+00	4.47762299
9.57861E+00	4.47760207
9.58163E+00	4.47737263
9.58490E+00	4.47712422
9.58520E+00	4.47710166
9.58736E+00	4.476937
9.58814E+00	4.47687775
9.59136E+00	4.47663321
9.59168E+00	4.47660909
9.59455E+00	4.47639059
9.59772E+00	4.47614986
9.59806E+00	4.47612422
9.60086E+00	4.47591101
9.60398E+00	4.47567403
9.60434E+00	4.47564692
9.60650E+00	4.47548232
9.60707E+00	4.4754389
9.61014E+00	4.47520561
9.61052E+00	4.47517709
9.61319E+00	4.47497415
9.61621E+00	4.47474449
9.61660E+00	4.47471461
9.61701E+00	4.47468374
9.61921E+00	4.47451663
9.62218E+00	4.47429056
9.62485E+00	4.47408801
9.62514E+00	4.47406625
9.62557E+00	4.47403354
9.62807E+00	4.4738437
9.63097E+00	4.4736229
9.63385E+00	4.47340381
9.63430E+00	4.47337014
9.63671E+00	4.47318644
9.63955E+00	4.47297077
9.64225E+00	4.47276562
9.64237E+00	4.47275678
9.64285E+00	4.47272053
9.64516E+00	4.47254447
9.64793E+00	4.47233382
9.65069E+00	4.47212482
9.65117E+00	4.47208776
9.65217E+00	4.47201214
9.65341E+00	4.47191745
9.65612E+00	4.4717117
9.65881E+00	4.47150756
9.65893E+00	4.47149812
9.65933E+00	4.47146817
9.66147E+00	4.47130503
9.66412E+00	4.47110408
9.66674E+00	4.47090469
9.66727E+00	4.47086464
9.66935E+00	4.47070687
9.67193E+00	4.47051059
9.67213E+00	4.47049552
9.67449E+00	4.4703161
9.67475E+00	4.47029629
9.67505E+00	4.47027398
9.67704E+00	4.47012315
9.68081E+00	4.46983675
9.68262E+00	4.46969914
9.68443E+00	4.46956239
9.68455E+00	4.46955332
9.68823E+00	4.46927358
9.68992E+00	4.46914569
9.69004E+00	4.46913627
9.69188E+00	4.46899676
9.69548E+00	4.46872354
9.69727E+00	4.468588
9.69905E+00	4.46845317
9.70257E+00	4.4681863
9.70435E+00	4.46805113
9.70605E+00	4.46792221
9.70930E+00	4.46767541
9.70948E+00	4.46766155
9.71124E+00	4.46752818
9.71288E+00	4.46740362
9.71624E+00	4.46714904
9.71799E+00	4.46701612
9.71956E+00	4.46689711
9.72264E+00	4.46666332
9.72284E+00	4.46664845
9.72457E+00	4.46651732
9.72608E+00	4.46640238
9.72747E+00	4.46629713
9.72928E+00	4.46615952
9.73100E+00	4.46602892
9.73245E+00	4.46591919
9.73558E+00	4.46568198
9.73867E+00	4.46544724
9.73941E+00	4.46539129
9.74004E+00	4.46534381
9.74173E+00	4.46521566
9.74450E+00	4.46500538
9.74475E+00	4.46498657
9.74755E+00	4.46477408
9.74773E+00	4.46476048
9.75069E+00	4.46453673
9.75360E+00	4.46431589
9.75544E+00	4.46417622
9.75648E+00	4.46409735
9.75731E+00	4.46403464
9.75933E+00	4.46388165
9.76047E+00	4.46379522
9.76215E+00	4.46366821
9.76308E+00	4.46359707
9.76493E+00	4.46345754
9.76768E+00	4.46324906
9.77039E+00	4.4630433
9.77049E+00	4.46303605
9.77308E+00	4.46283967
9.77544E+00	4.46266079
9.77663E+00	4.462571
9.77766E+00	4.46249258
9.78012E+00	4.46230654
9.78021E+00	4.46229967
9.78355E+00	4.46204624
9.78461E+00	4.46196614
9.78693E+00	4.46179
9.78765E+00	4.46173597
9.79026E+00	4.46153777
9.79134E+00	4.46145618
9.79354E+00	4.46128949
9.79605E+00	4.46109899
9.79677E+00	4.4610451
9.79786E+00	4.46096218
9.79994E+00	4.46080453
9.80307E+00	4.46056773
9.80418E+00	4.46048365
9.80614E+00	4.46033463
9.80917E+00	4.46010517
9.81030E+00	4.46002008
9.81216E+00	4.4598793
9.81497E+00	4.45966615
9.81509E+00	4.45965696
9.81798E+00	4.45943811
9.81914E+00	4.45935005
9.82082E+00	4.45922268
9.82362E+00	4.45901062
9.82638E+00	4.45880188
9.82658E+00	4.45878678
9.82753E+00	4.45871458
9.82909E+00	4.4585964
9.83176E+00	4.45839413
9.83195E+00	4.45837961
9.83439E+00	4.45819505
9.83557E+00	4.45810551
9.83698E+00	4.45799907
9.83953E+00	4.45780616
9.84320E+00	4.45752787
9.84328E+00	4.45752206
9.84693E+00	4.45724532
9.84754E+00	4.45719929
9.84826E+00	4.457145
9.85051E+00	4.45697437
9.85051E+00	4.4569742
9.85293E+00	4.45679115
9.85399E+00	4.45671044
9.85741E+00	4.45645201
9.85745E+00	4.45644913
9.86073E+00	4.45620027
9.86399E+00	4.45595376
9.86409E+00	4.45594583
9.86660E+00	4.45575624
9.86716E+00	4.45571365
9.87026E+00	4.45547855
9.87259E+00	4.45530272
9.87329E+00	4.45524955
9.87625E+00	4.4550253
9.87914E+00	4.45480687
9.88055E+00	4.45469985
9.88196E+00	4.45459298
9.88327E+00	4.45449379
9.88471E+00	4.45438464
9.88619E+00	4.45427276
9.88741E+00	4.45418065
9.88802E+00	4.45413471
9.88949E+00	4.45402293
9.89093E+00	4.45391436
9.89434E+00	4.45365643
9.89501E+00	4.45360505
9.89764E+00	4.45340656
9.89786E+00	4.45338952
9.90084E+00	4.45316453
9.90158E+00	4.45310857
9.90394E+00	4.45293008
9.90694E+00	4.45270295
9.90773E+00	4.45264316
9.90985E+00	4.45248293
9.91266E+00	4.45226979
9.91539E+00	4.45206332
9.91620E+00	4.45200236
9.91622E+00	4.45200103
9.91804E+00	4.45186332
9.92060E+00	4.45166959
9.92397E+00	4.45141453
9.92430E+00	4.45138957
9.92531E+00	4.45131293
9.92781E+00	4.45112401
9.93095E+00	4.45088671
9.93118E+00	4.45086947
9.93158E+00	4.45083931
9.93437E+00	4.45062809
9.93735E+00	4.45040253
9.93743E+00	4.45039673
9.94033E+00	4.4501773
9.94311E+00	4.44996698
9.94518E+00	4.44981054
9.94667E+00	4.44969823
9.94868E+00	4.44954614
9.95000E+00	4.44944631
9.95199E+00	4.44929638
9.95204E+00	4.44929268
9.95313E+00	4.44921019
9.95606E+00	4.44898884
9.95880E+00	4.44878135
9.96083E+00	4.44862832
9.96138E+00	4.44858684
9.96492E+00	4.44831904
9.96573E+00	4.44825847
9.96701E+00	4.44816149
9.96818E+00	4.44807336
9.97110E+00	4.44785279
9.97378E+00	4.44765043
9.97429E+00	4.4476115
9.97706E+00	4.44740301
9.97992E+00	4.44718655
9.98313E+00	4.44694458
9.98350E+00	4.44691634
9.98360E+00	4.44690881
9.98565E+00	4.44675421
9.98916E+00	4.44649013
9.98924E+00	4.4464837
9.99294E+00	4.44620481
9.99546E+00	4.44601469
1.00000E+01	4.44567258
1.00067E+01	4.44453975
1.00201E+01	4.44229186
1.00269E+01	4.44114142
1.00332E+01	4.44007927
1.00397E+01	4.43898178
1.00461E+01	4.43790142
1.00529E+01	4.43675256
1.00588E+01	4.43575781
1.00588E+01	4.43575779
1.00714E+01	4.43364785
1.00776E+01	4.43260127
1.00782E+01	4.43250163
1.00790E+01	4.43236454
1.00837E+01	4.4315711
1.00958E+01	4.42952705
1.00958E+01	4.42952703
1.01026E+01	4.42838444
1.01078E+01	4.42751511
1.01137E+01	4.42651722
1.01195E+01	4.42553487
1.01263E+01	4.42439681
1.01311E+01	4.42358579
1.01311E+01	4.42358578
1.01425E+01	4.42166739
1.01481E+01	4.42071583
1.01492E+01	4.42053473
1.01514E+01	4.42016147
1.01537E+01	4.41977921
1.01647E+01	4.41792083
1.01714E+01	4.4167944
1.01756E+01	4.41609172
1.01810E+01	4.41518453
1.01863E+01	4.41429148
1.01930E+01	4.41317202
1.01968E+01	4.41251962
1.02022E+01	4.41161295
1.02072E+01	4.41077575
1.02138E+01	4.40966397
1.02151E+01	4.4094529
1.02165E+01	4.40921216
1.02174E+01	4.40905939
1.02228E+01	4.40815415
1.02275E+01	4.4073702
1.02340E+01	4.40626678
1.02373E+01	4.40570769
1.02411E+01	4.40506988
1.02427E+01	4.40480481
1.02471E+01	4.40407187
1.02554E+01	4.40267403
1.02567E+01	4.40246203
1.02620E+01	4.40156229
1.02631E+01	4.40138521
1.02661E+01	4.40087768
1.02743E+01	4.39949911
1.02762E+01	4.39917864
1.02799E+01	4.39855121
1.02807E+01	4.39842258
1.02909E+01	4.39670941
1.02926E+01	4.39642462
1.02935E+01	4.39627377
1.02988E+01	4.39538239
1.03067E+01	4.39405622
1.03104E+01	4.39344786
1.03164E+01	4.39243851
1.03173E+01	4.39227775
1.03197E+01	4.39188546
1.03275E+01	4.39056554
1.03323E+01	4.38977189
1.03330E+01	4.38964477
1.03334E+01	4.38958829
1.03426E+01	4.38803348
1.03442E+01	4.38777503
1.03446E+01	4.38770336
1.03492E+01	4.38693211
1.03498E+01	4.38682923
1.03566E+01	4.38568949
1.03603E+01	4.3850738
1.03658E+01	4.38415792
1.03667E+01	4.38401205
1.03684E+01	4.38371827
1.03799E+01	4.38179918
1.03812E+01	4.38157189
1.03835E+01	4.38119238
1.03897E+01	4.38016105
1.03911E+01	4.37992077
1.04021E+01	4.37809211
1.04035E+01	4.37785631
1.04057E+01	4.37747565
1.04115E+01	4.37651237
1.04128E+01	4.3763023
1.04131E+01	4.37624519
1.04232E+01	4.37456002
1.04248E+01	4.37429877
1.04268E+01	4.37395451
1.04324E+01	4.37301899
1.04334E+01	4.37285485
1.04450E+01	4.37092878
1.04467E+01	4.37064781
1.04470E+01	4.37058346
1.04592E+01	4.36856133
1.04596E+01	4.36849394
1.04643E+01	4.36770263
1.04662E+01	4.36739048
1.04690E+01	4.36692494
1.04721E+01	4.36640962
1.04827E+01	4.36464688
1.04842E+01	4.36439212
1.04842E+01	4.3643901
1.04846E+01	4.36433378
1.04881E+01	4.36375003
1.04960E+01	4.36244177
1.05003E+01	4.36172543
1.05020E+01	4.36144285
1.05074E+01	4.36055494
1.05078E+01	4.36049227
1.05170E+01	4.35895987
1.05184E+01	4.35872936
1.05187E+01	4.35867654
1.05291E+01	4.35696256
1.05298E+01	4.356847
1.05330E+01	4.35631356
1.05393E+01	4.35527263
1.05394E+01	4.35525323
1.05401E+01	4.35514876
1.05495E+01	4.35359913
1.05504E+01	4.35343778
1.05535E+01	4.35293897
1.05592E+01	4.35199908
1.05601E+01	4.35184985
1.05686E+01	4.35045086
1.05726E+01	4.34978375
1.05788E+01	4.34876519
1.05792E+01	4.34871068
1.05822E+01	4.34821651
1.05906E+01	4.34683363
1.05951E+01	4.34610203
1.05964E+01	4.34588138
1.05982E+01	4.34559886
1.06050E+01	4.34448318
1.06075E+01	4.34407937
1.06075E+01	4.34407527
1.06129E+01	4.3431862
1.06192E+01	4.34216573
1.06203E+01	4.3419871
1.06233E+01	4.34149865
1.06304E+01	4.34033554
1.06359E+01	4.33945107
1.06411E+01	4.33860334
1.06431E+01	4.33827086
1.06453E+01	4.33792708
1.06513E+01	4.33694754
1.06565E+01	4.33611354
1.06637E+01	4.33494622
1.06644E+01	4.33483737
1.06650E+01	4.33473583
1.06703E+01	4.33388507
1.06754E+01	4.33306575
1.06766E+01	4.33286592
1.06831E+01	4.33182351
1.06881E+01	4.33102407
1.06940E+01	4.33007424
1.06978E+01	4.32947775
1.06989E+01	4.32930333
1.07046E+01	4.32839359
1.07090E+01	4.3276959
1.07148E+01	4.32676461
1.07181E+01	4.32624683
1.07228E+01	4.32549236
1.07240E+01	4.32530411
1.07339E+01	4.32374589
1.07356E+01	4.323481
1.07359E+01	4.32343855
1.07410E+01	4.32263804
1.07411E+01	4.32262094
1.07470E+01	4.32168435
1.07575E+01	4.32004436
1.07587E+01	4.31986858
1.07628E+01	4.31922206
1.07629E+01	4.31920825
1.07704E+01	4.31805098
1.07714E+01	4.31789825
1.07751E+01	4.31732451
1.07816E+01	4.31631819
1.07872E+01	4.31546334
1.07915E+01	4.31481148
1.07936E+01	4.31448479
1.07964E+01	4.31406025
1.07971E+01	4.31395282
1.08038E+01	4.31293002
1.08055E+01	4.31268126
1.08142E+01	4.31136836
1.08165E+01	4.31101661
1.08184E+01	4.31074255
1.08257E+01	4.30964315
1.08303E+01	4.30895829
1.08322E+01	4.30870577
1.08329E+01	4.30860593
1.08333E+01	4.3085436
1.08381E+01	4.30789361
1.08492E+01	4.30638009
1.08603E+01	4.30488342
1.08778E+01	4.30230457
1.08930E+01	4.30006417
1.08952E+01	4.29974671
1.09083E+01	4.29784396
1.09123E+01	4.29727164
1.09283E+01	4.29495585
1.09312E+01	4.29454303
1.09398E+01	4.29331885
1.09463E+01	4.29240394
1.09496E+01	4.29193695
1.09613E+01	4.290283
1.09655E+01	4.28970159
1.09705E+01	4.28899513
1.09827E+01	4.28730115
1.10000E+01	4.2849317
1.10313E+01	4.27998551
1.10615E+01	4.27524427
1.10762E+01	4.27297083
1.10909E+01	4.2707005
1.11051E+01	4.26852455
1.11193E+01	4.26634866
1.11250E+01	4.26548092
1.11330E+01	4.26426761
1.11468E+01	4.2621866
1.11601E+01	4.26019473
1.11734E+01	4.25820591
1.11864E+01	4.25630355
1.11993E+01	4.25440123
1.12032E+01	4.25382759
1.12118E+01	4.25258601
1.12243E+01	4.25077089
1.12344E+01	4.24932976
1.12364E+01	4.24903713
1.12485E+01	4.24730639
1.12603E+01	4.2456544
1.12720E+01	4.24400248
1.12834E+01	4.2424359
1.12948E+01	4.24086934
1.13058E+01	4.23935177
1.13168E+01	4.23787455
1.13275E+01	4.23644349
1.13382E+01	4.23501249
1.13485E+01	4.23366606
1.13588E+01	4.23231965
1.13689E+01	4.23101536
1.13719E+01	4.23062492
1.13789E+01	4.22974798
1.13795E+01	4.22966623
1.13983E+01	4.22729923
1.13989E+01	4.22722265
1.14177E+01	4.22492468
1.14183E+01	4.22485056
1.14262E+01	4.22388752
1.14365E+01	4.22267366
1.14530E+01	4.22072915
1.14541E+01	4.22059941
1.14547E+01	4.22053464
1.14710E+01	4.21868126
1.14717E+01	4.21859769
1.14783E+01	4.21784451
1.14815E+01	4.21749441
1.14871E+01	4.21688515
1.14882E+01	4.21676226
1.14887E+01	4.21670395
1.14891E+01	4.21666528
1.15027E+01	4.21438881
1.15047E+01	4.21405195
1.15202E+01	4.21152917
1.15207E+01	4.2114478
1.15337E+01	4.20932826
1.15357E+01	4.20902459
1.15502E+01	4.20675036
1.15629E+01	4.20476083
1.15652E+01	4.20441851
1.15787E+01	4.20237609
1.15902E+01	4.20065354
1.15919E+01	4.20040775
1.16051E+01	4.19850752
1.16153E+01	4.19703357
1.16158E+01	4.19696235
1.16174E+01	4.19674234
1.16294E+01	4.19509475
1.16398E+01	4.19365339
1.16417E+01	4.19340968
1.16572E+01	4.19140142
1.16732E+01	4.18931925
1.16746E+01	4.18915524
1.16848E+01	4.18792713
1.16851E+01	4.1878875
1.17032E+01	4.18570913
1.17153E+01	4.18436959
1.17242E+01	4.18337956
1.17244E+01	4.18334762
1.17307E+01	4.18265081
1.17379E+01	4.18193117
1.17418E+01	4.181539
1.17476E+01	4.1804462
1.17509E+01	4.17981883
1.17586E+01	4.17833997
1.17589E+01	4.17829226
1.17634E+01	4.17744832
1.17820E+01	4.17413032
1.17888E+01	4.17291807
1.17929E+01	4.17218433
1.18031E+01	4.17048635
1.18188E+01	4.16787048
1.18212E+01	4.16750846
1.18268E+01	4.16664872
1.18273E+01	4.16655843
1.18277E+01	4.16650267
1.18520E+01	4.16277943
1.18540E+01	4.16250791
1.18585E+01	4.16186313
1.18705E+01	4.16016633
1.18708E+01	4.16013398
1.18905E+01	4.15761994
1.18918E+01	4.15744869
1.18939E+01	4.15718288
1.19029E+01	4.1560327
1.19152E+01	4.15467642
1.19179E+01	4.15438692
1.19204E+01	4.15410652
1.19363E+01	4.15237423
1.19455E+01	4.15151702
1.19589E+01	4.15028272
1.19590E+01	4.15027263
1.19602E+01	4.15018837
1.20000E+01	4.14733177
1.20499E+01	4.13739647
1.20636E+01	4.1348534
1.20840E+01	4.1310576
1.21044E+01	4.12756993
1.21453E+01	4.12059461
1.21987E+01	4.11058445
1.22238E+01	4.10589258
1.22425E+01	4.10254582
1.22488E+01	4.10143283
1.22521E+01	4.10083836
1.22957E+01	4.0930734
1.23370E+01	4.08616204
1.23456E+01	4.08472457
1.23604E+01	4.08225104
1.23838E+01	4.07833737
1.24197E+01	4.07274733
1.24274E+01	4.07154928
1.24608E+01	4.06635629
1.24715E+01	4.06481726
1.24730E+01	4.06461575
1.24900E+01	4.06233792
1.25219E+01	4.05807655
1.25282E+01	4.05722781
1.25303E+01	4.05697233
1.25597E+01	4.053396
1.25654E+01	4.0527017
1.25727E+01	4.05127776
1.25816E+01	4.04951452
1.26147E+01	4.04301942
1.26164E+01	4.04271002
1.26264E+01	4.04090917
1.26339E+01	4.03954642
1.26797E+01	4.03127993
1.27010E+01	4.02742292
1.27050E+01	4.02670614
1.27110E+01	4.02570801
1.27123E+01	4.02549675
1.27384E+01	4.02120396
1.27424E+01	4.02053954
1.27548E+01	4.01851553
1.27788E+01	4.0145697
1.27842E+01	4.01375057
1.27863E+01	4.01343786
1.27997E+01	4.01143536
1.28104E+01	4.00984468
1.28498E+01	4.00399865
1.28578E+01	4.00281549
1.28781E+01	4.00012321
1.28921E+01	3.99828536
1.28932E+01	3.99814836
1.28998E+01	3.99727362
1.29030E+01	3.99686357
1.29034E+01	3.99680252
1.29090E+01	3.99606949
1.29147E+01	3.99532506
1.29200E+01	3.99462716
1.29250E+01	3.99397288
1.29289E+01	3.99347024
1.29297E+01	3.99337301
1.29341E+01	3.99286814
1.29402E+01	3.99217297
1.29457E+01	3.9915351
1.29507E+01	3.99096228
1.29553E+01	3.99043669
1.29566E+01	3.9902838
1.29609E+01	3.98979402
1.29658E+01	3.98923167
1.29720E+01	3.98850999
1.29771E+01	3.98793234
1.29771E+01	3.98792771
1.29813E+01	3.98748433
1.29859E+01	3.98698579
1.29910E+01	3.98645165
1.30000E+01	3.98549019
1.30117E+01	3.98350627
1.30233E+01	3.98154299
1.30347E+01	3.97960519
1.30460E+01	3.97768757
1.30571E+01	3.97579485
1.30625E+01	3.97488173
1.30682E+01	3.97392207
1.30827E+01	3.97145134
1.30918E+01	3.96991028
1.30970E+01	3.96901936
1.31112E+01	3.96662564
1.31250E+01	3.96426932
1.31387E+01	3.96194982
1.31486E+01	3.96027972
1.31522E+01	3.95966675
1.31654E+01	3.95741986
1.31760E+01	3.95562122
1.31785E+01	3.95520815
1.31797E+01	3.95500021
1.31913E+01	3.9530388
1.32039E+01	3.95090412
1.32099E+01	3.94989174
1.32164E+01	3.94880281
1.32275E+01	3.94691894
1.32286E+01	3.9467344
1.32407E+01	3.94469888
1.32500E+01	3.94312314
1.32517E+01	3.94285817
1.32525E+01	3.9427196
1.32642E+01	3.94086003
1.32757E+01	3.93902952
1.32870E+01	3.93722761
1.32982E+01	3.93545386
1.32984E+01	3.93541125
1.33091E+01	3.93370835
1.33199E+01	3.93199015
1.33211E+01	3.93180906
1.33301E+01	3.93037489
1.33306E+01	3.93029939
1.33335E+01	3.92982539
1.33410E+01	3.9287116
1.33564E+01	3.92642041
1.33635E+01	3.92535864
1.33714E+01	3.9241773
1.33861E+01	3.92199268
1.34004E+01	3.91985348
1.34059E+01	3.91903337
1.34144E+01	3.91776997
1.34281E+01	3.91572997
1.34284E+01	3.91568567
1.34375E+01	3.9143292
1.34414E+01	3.91378449
1.34431E+01	3.91355894
1.34545E+01	3.91197702
1.34672E+01	3.91021648
1.34797E+01	3.90849252
1.34802E+01	3.90841952
1.34868E+01	3.9074992
1.34918E+01	3.90681369
1.34976E+01	3.90601627
1.35037E+01	3.90517459
1.35127E+01	3.90393574
1.35152E+01	3.90358252
1.35340E+01	3.90100693
1.35485E+01	3.89900417
1.35626E+01	3.89706401
1.35755E+01	3.89529804
1.35763E+01	3.89518451
1.35896E+01	3.89336421
1.36002E+01	3.89189463
1.36024E+01	3.89160098
1.36148E+01	3.8898937
1.36268E+01	3.88823977
1.36286E+01	3.88800502
1.36385E+01	3.88663793
1.36498E+01	3.88508621
1.36607E+01	3.88358298
1.36713E+01	3.88212673
1.36735E+01	3.88182658
1.36770E+01	3.88135042
1.36866E+01	3.8800417
1.37012E+01	3.87804777
1.37090E+01	3.87698538
1.37151E+01	3.87615661
1.37188E+01	3.87565404
1.37214E+01	3.87532488
1.37284E+01	3.87446852
1.37410E+01	3.872913
1.37530E+01	3.87142194
1.37552E+01	3.87116049
1.37645E+01	3.87000868
1.37755E+01	3.8686542
1.37895E+01	3.86692328
1.38027E+01	3.86530055
1.38150E+01	3.86377924
1.38172E+01	3.86350957
1.38266E+01	3.8623535
1.38374E+01	3.86101697
1.38385E+01	3.8608807
1.38393E+01	3.86078082
1.38525E+01	3.85917175
1.38537E+01	3.85901815
1.38660E+01	3.85751581
1.38825E+01	3.85550387
1.38860E+01	3.85506759
1.38967E+01	3.85376432
1.39003E+01	3.85332686
1.39023E+01	3.85307882
1.39128E+01	3.85180481
1.39237E+01	3.85047301
1.39374E+01	3.84879785
1.39489E+01	3.84739582
1.39511E+01	3.84712507
1.39608E+01	3.84593437
1.39616E+01	3.84583451
1.39753E+01	3.84416212
1.39877E+01	3.84265698
1.40000E+01	3.84115184
1.40232E+01	3.83812526
1.40454E+01	3.83522412
1.40625E+01	3.83299601
1.40665E+01	3.83247574
1.40867E+01	3.82985448
1.40898E+01	3.8294499
1.41059E+01	3.82737083
1.41360E+01	3.82346972
1.41588E+01	3.82052302
1.41650E+01	3.8197099
1.41719E+01	3.81882559
1.41801E+01	3.817763
1.42001E+01	3.81517646
1.42188E+01	3.81276171
1.42188E+01	3.81275166
1.42364E+01	3.81049596
1.42488E+01	3.80890715
1.42500E+01	3.80875071
1.42529E+01	3.80839508
1.42756E+01	3.80559042
1.42847E+01	3.80446457
1.42964E+01	3.80301701
1.43151E+01	3.80070605
1.43322E+01	3.79858564
1.43360E+01	3.79811865
1.43385E+01	3.79780904
1.43532E+01	3.79599579
1.43616E+01	3.79496146
1.43715E+01	3.79373081
1.43951E+01	3.7908241
1.44063E+01	3.78944713
1.44139E+01	3.78850475
1.44193E+01	3.78785481
1.44297E+01	3.78657416
1.44473E+01	3.78442522
1.44661E+01	3.78212277
1.44914E+01	3.77903312
1.45000E+01	3.7780217
1.45232E+01	3.77514084
1.45454E+01	3.7723794
1.45697E+01	3.76936462
1.45738E+01	3.76885048
1.45898E+01	3.76686223
1.46005E+01	3.76554214
1.46172E+01	3.76346591
1.46250E+01	3.76249625
1.46254E+01	3.76244181
1.46489E+01	3.75956108
1.46650E+01	3.7575692
1.46708E+01	3.7568604
1.46719E+01	3.756728
1.46914E+01	3.75433254
1.47129E+01	3.75168927
1.47188E+01	3.75097005
1.47197E+01	3.750856
1.47457E+01	3.74775202
1.47488E+01	3.74738437
1.47690E+01	3.74496462
1.47833E+01	3.74326445
1.47847E+01	3.74309908
1.47905E+01	3.74240799
1.48116E+01	3.73988949
1.48125E+01	3.73978034
1.48154E+01	3.73943476
1.48167E+01	3.73929028
1.48396E+01	3.73658952
1.48616E+01	3.73399713
1.48690E+01	3.73312505
1.48854E+01	3.73119843
1.49058E+01	3.728795
1.49063E+01	3.72874115
1.49077E+01	3.72857323
1.49140E+01	3.72785097
1.49436E+01	3.72446635
1.49637E+01	3.72215868
1.50000E+01	3.71800494
1.50313E+01	3.71422432
1.50615E+01	3.71056186
1.50625E+01	3.71044373
1.50909E+01	3.7070946
1.51202E+01	3.70363017
1.51250E+01	3.70306058
1.51330E+01	3.70211507
1.51734E+01	3.6973514
1.51752E+01	3.69714881
1.52118E+01	3.69283331
1.52267E+01	3.69107398
1.52344E+01	3.69017185
1.52485E+01	3.68854042
1.52500E+01	3.68837241
1.52750E+01	3.68552177
1.52834E+01	3.6845716
1.53168E+01	3.68076925
1.53204E+01	3.68036562
1.53365E+01	3.67852932
1.53438E+01	3.6777038
1.53485E+01	3.67716526
1.53719E+01	3.67450876
1.53789E+01	3.67372585
1.53834E+01	3.67321651
1.54177E+01	3.66934154
1.54258E+01	3.6684289
1.54400E+01	3.66685784
1.54541E+01	3.66529906
1.54871E+01	3.66165148
1.54882E+01	3.66152787
1.54919E+01	3.66111852
1.54919E+01	3.66111807
1.55078E+01	3.65940691
1.55202E+01	3.65809153
1.55502E+01	3.65490737
1.55535E+01	3.65456058
1.55702E+01	3.652778
1.55781E+01	3.651941
1.55919E+01	3.65048561
1.56093E+01	3.64865121
1.56153E+01	3.64801259
1.56294E+01	3.6465351
1.56309E+01	3.64637804
1.56581E+01	3.64359789
1.56848E+01	3.64088007
1.57208E+01	3.6372042
1.57242E+01	3.63686057
1.57476E+01	3.6344747
1.57557E+01	3.63364768
1.57586E+01	3.63334823
1.57888E+01	3.63028344
1.57891E+01	3.63025789
1.58168E+01	3.62748666
1.58268E+01	3.62648759
1.58377E+01	3.62539214
1.58554E+01	3.6236276
1.58585E+01	3.62332165
1.58594E+01	3.62323658
1.58798E+01	3.62121944
1.58939E+01	3.61982048
1.59204E+01	3.61719514
1.59227E+01	3.61696928
1.59602E+01	3.61325745
1.60000E+01	3.60932021
1.60464E+01	3.60422434
1.60625E+01	3.60245421
1.60909E+01	3.59933993
1.61211E+01	3.59601781
1.61250E+01	3.59558876
1.61330E+01	3.59471293
1.61734E+01	3.5903003
1.61760E+01	3.59001895
1.61797E+01	3.58961924
1.62243E+01	3.58475969
1.62257E+01	3.58460376
1.62275E+01	3.58438999
1.62500E+01	3.58170898
1.62728E+01	3.57904993
1.62758E+01	3.5786972
1.62822E+01	3.57794759
1.63182E+01	3.57375185
1.63211E+01	3.5734217
1.63301E+01	3.57237163
1.63608E+01	3.56879403
1.63834E+01	3.56617214
1.64008E+01	3.56414889
1.64138E+01	3.5626341
1.64375E+01	3.55988504
1.64382E+01	3.55980048
1.64406E+01	3.55953424
1.64781E+01	3.55525074
1.64903E+01	3.55385912
1.64919E+01	3.55367788
1.64976E+01	3.55303597
1.65371E+01	3.54853498
1.65390E+01	3.54831617
1.65604E+01	3.54589172
1.65801E+01	3.5436566
1.65967E+01	3.54177052
1.66250E+01	3.53855469
1.66309E+01	3.53789225
1.66471E+01	3.53607771
1.66770E+01	3.53272268
1.66770E+01	3.53271809
1.67118E+01	3.52883196
1.67174E+01	3.52820664
1.67174E+01	3.52820265
1.67188E+01	3.5280534
1.67478E+01	3.52487204
1.67692E+01	3.52252894
1.67981E+01	3.51937162
1.68109E+01	3.51797164
1.68385E+01	3.51494698
1.68461E+01	3.5141184
1.68486E+01	3.51385454
1.68587E+01	3.51276606
1.68759E+01	3.5109233
1.69006E+01	3.50827195
1.69202E+01	3.50617163
1.69361E+01	3.50446764
1.70000E+01	3.49762095
1.70626E+01	3.4900593
1.70628E+01	3.49004816
1.71255E+01	3.48320521
1.71802E+01	3.47742426
1.72058E+01	3.47471447
1.72314E+01	3.47200521
1.72342E+01	3.47171337
1.72794E+01	3.46692538
1.73245E+01	3.46216416
1.73305E+01	3.46153077
1.73441E+01	3.46008959
1.73695E+01	3.45741949
1.73865E+01	3.45563394
1.74434E+01	3.44964951
1.74483E+01	3.44913031
1.74945E+01	3.44427662
1.74978E+01	3.44392235
1.75039E+01	3.44329171
1.75081E+01	3.44284733
1.75173E+01	3.4418975
1.75414E+01	3.43940742
1.75987E+01	3.4334797
1.76058E+01	3.43274697
1.76311E+01	3.43013263
1.76489E+01	3.42830135
1.76772E+01	3.42538378
1.76982E+01	3.42322822
1.77120E+01	3.42181358
1.77502E+01	3.41788678
1.77648E+01	3.41639142
1.77736E+01	3.41548069
1.78236E+01	3.41035503
1.78386E+01	3.40881312
1.78545E+01	3.40718723
1.78842E+01	3.40414381
1.79256E+01	3.39991254
1.79272E+01	3.3997417
1.80000E+01	3.3922993
1.80625E+01	3.38380927
1.81211E+01	3.37585004
1.81250E+01	3.37531945
1.82018E+01	3.3648937
1.82344E+01	3.36046685
1.82500E+01	3.35834576
1.82758E+01	3.35485594
1.83423E+01	3.34586533
1.83719E+01	3.34185349
1.84033E+01	3.33761771
1.84375E+01	3.33299185
1.84779E+01	3.32756168
1.84804E+01	3.32721857
1.84871E+01	3.3263215
1.85000E+01	3.32458588
1.85078E+01	3.32353722
1.85431E+01	3.31880582
1.86153E+01	3.30913822
1.86250E+01	3.30784207
1.86252E+01	3.3078114
1.86836E+01	3.30001261
1.86939E+01	3.29863414
1.87476E+01	3.29148942
1.87705E+01	3.28843894
1.88377E+01	3.27948018
1.88494E+01	3.27792954
1.89032E+01	3.27076751
1.89737E+01	3.26138223
1.89893E+01	3.25931598
1.90000E+01	3.25789961
1.90918E+01	3.24655488
1.91760E+01	3.23614617
1.91797E+01	3.23569366
1.92500E+01	3.22700943
1.92790E+01	3.22343444
1.93301E+01	3.2171459
1.93443E+01	3.21540044
1.93691E+01	3.21233649
1.94480E+01	3.20262931
1.94976E+01	3.19652946
1.95000E+01	3.19622914
1.95472E+01	3.19045441
1.95781E+01	3.186669
1.96302E+01	3.18032078
1.96694E+01	3.17554405
1.96703E+01	3.17543712
1.97227E+01	3.16905635
1.97880E+01	3.16109306
1.98180E+01	3.15744651
1.99220E+01	3.14478885
2.00000E+01	3.13529695
