E(MeV)	pendfb7/Kr82:1
1.00000E-11	1058.17073
1.02999E-11	1042.68042
1.06075E-11	1027.48163
1.06087E-11	1027.42256
1.09255E-11	1012.44783
1.09269E-11	1012.38191
1.12532E-11	997.625388
1.12544E-11	997.571327
1.15905E-11	983.034411
1.15920E-11	982.969781
1.19381E-11	968.648248
1.19395E-11	968.590538
1.22960E-11	954.478199
1.22976E-11	954.415104
1.26648E-11	940.508395
1.26662E-11	940.455576
1.30445E-11	926.753274
1.30462E-11	926.691933
1.34357E-11	913.193121
1.34372E-11	913.141335
1.38385E-11	899.839301
1.38403E-11	899.779863
1.42535E-11	886.677697
1.42552E-11	886.623998
1.46808E-11	873.711582
1.46827E-11	873.654158
1.51212E-11	860.929975
1.51229E-11	860.880833
1.55744E-11	848.345696
1.55765E-11	848.287617
1.60416E-11	835.936784
1.60434E-11	835.889167
1.65224E-11	823.720063
1.65246E-11	823.664386
1.70180E-11	811.673194
1.70199E-11	811.627193
1.75281E-11	799.813509
1.75304E-11	799.760248
1.80539E-11	788.117854
1.80559E-11	788.073545
1.85951E-11	776.603487
1.85975E-11	776.552628
1.91528E-11	765.252321
1.91550E-11	765.207723
1.97270E-11	754.07233
1.97295E-11	754.023846
2.03186E-11	743.05266
2.03209E-11	743.00999
2.09277E-11	732.20105
2.09305E-11	732.151364
2.15554E-11	721.503037
2.15579E-11	721.4606
2.22016E-11	710.967011
2.22045E-11	710.919916
2.28675E-11	700.581457
2.28701E-11	700.541069
2.35530E-11	690.354181
2.35561E-11	690.308114
2.42594E-11	680.272765
2.42622E-11	680.232964
2.49866E-11	670.344629
2.49899E-11	670.299755
2.57361E-11	660.556341
2.57390E-11	660.518619
2.65076E-11	650.918516
2.65110E-11	650.87621
2.73026E-11	641.417671
2.73057E-11	641.380771
2.81211E-11	632.061491
2.81247E-11	632.020502
2.89645E-11	622.838623
2.89678E-11	622.80268
2.98328E-11	613.756255
2.98367E-11	613.715623
3.07276E-11	604.803013
3.07311E-11	604.768133
3.16487E-11	595.986558
3.16528E-11	595.94747
3.25980E-11	587.295168
3.26017E-11	587.261427
3.35751E-11	578.73727
3.35795E-11	578.698885
3.45822E-11	570.299834
3.45861E-11	570.267289
3.56188E-11	561.992719
3.56235E-11	561.955204
3.66872E-11	553.802123
3.66913E-11	553.770816
3.77869E-11	545.738607
3.77919E-11	545.70209
3.89203E-11	537.788313
3.89247E-11	537.757571
4.00870E-11	529.960567
4.00923E-11	529.925148
4.12894E-11	522.243616
4.12941E-11	522.213572
4.25271E-11	514.645038
4.25327E-11	514.610794
4.38027E-11	507.153987
4.38076E-11	507.125326
4.51157E-11	499.778734
4.51216E-11	499.745724
4.64689E-11	492.5079
4.64742E-11	492.479536
4.78619E-11	485.348358
4.78681E-11	485.316626
4.93030E-11	478.265337
4.95055E-11	477.309757
5.07818E-11	471.313996
5.12056E-11	469.402148
5.23041E-11	464.468645
5.29641E-11	461.622254
5.38729E-11	457.72019
5.47830E-11	453.967989
5.54878E-11	451.074967
5.66643E-11	446.437977
5.71521E-11	444.523792
5.86103E-11	439.029437
5.88653E-11	438.072784
6.06230E-11	431.741611
6.06310E-11	431.712919
6.24484E-11	425.454701
6.27049E-11	424.606566
6.43215E-11	419.285007
6.48583E-11	417.588164
6.62496E-11	413.209713
6.70857E-11	410.683284
6.82368E-11	407.220328
6.93895E-11	403.890544
7.02822E-11	401.323095
7.17724E-11	397.20808
7.23903E-11	395.509239
7.42372E-11	390.633895
7.45603E-11	389.784674
7.67866E-11	384.166542
7.67967E-11	384.141164
7.90987E-11	378.587906
7.94236E-11	377.835329
8.14712E-11	373.113436
8.21511E-11	371.607946
8.39134E-11	367.722921
8.49723E-11	365.48162
8.64304E-11	362.408872
8.78904E-11	359.454783
8.90212E-11	357.176729
9.09087E-11	353.526003
9.16913E-11	352.018869
9.40307E-11	347.693592
9.44399E-11	346.940272
9.72598E-11	341.956362
9.72725E-11	341.934011
1.00188E-10	337.007743
1.00600E-10	336.3395
1.03193E-10	332.152329
1.04055E-10	330.815804
1.06287E-10	327.370197
1.07628E-10	325.382481
1.09475E-10	322.656652
1.11324E-10	320.036691
1.12756E-10	318.01636
1.15147E-10	314.778692
1.16139E-10	313.441193
1.19102E-10	309.605711
1.19620E-10	308.938023
1.23192E-10	304.517884
1.23208E-10	304.498168
1.26901E-10	300.129941
1.27422E-10	299.538315
1.30707E-10	295.824348
1.31798E-10	294.640292
1.34626E-10	291.584368
1.36324E-10	289.822514
1.38664E-10	287.404984
1.41006E-10	285.082465
1.42820E-10	283.291213
1.45848E-10	280.421097
1.47104E-10	279.235646
1.50857E-10	275.835063
1.51513E-10	275.243163
1.56038E-10	271.324958
1.56058E-10	271.307712
1.60736E-10	267.435466
1.61396E-10	266.911027
1.65557E-10	263.618982
1.66939E-10	262.56939
1.70520E-10	259.861343
1.72672E-10	258.299197
1.75635E-10	256.157478
1.78602E-10	254.098783
1.80899E-10	252.511678
1.84735E-10	249.968067
1.86325E-10	248.918166
1.91079E-10	245.905135
1.91911E-10	245.380009
1.97641E-10	241.908677
1.97667E-10	241.892991
2.03592E-10	238.462252
2.04428E-10	237.997653
2.09699E-10	235.080812
2.11449E-10	234.151309
2.15985E-10	231.75215
2.18710E-10	230.368748
2.22463E-10	228.471423
2.26221E-10	226.648171
2.29132E-10	225.242054
2.34982E-10	222.529965
2.36004E-10	222.05833
2.43079E-10	218.925296
2.44077E-10	218.501117
2.50370E-10	215.838991
2.53529E-10	214.556516
2.57875E-10	212.800317
2.63343E-10	210.679862
2.65610E-10	209.804738
2.73541E-10	206.866991
2.73572E-10	206.85556
2.81777E-10	203.952191
2.84129E-10	203.153544
2.90224E-10	201.093438
2.95132E-10	199.501525
2.98929E-10	198.275543
3.06556E-10	195.912683
3.07890E-10	195.501245
3.17125E-10	192.768193
3.18427E-10	192.398461
3.26631E-10	190.079391
3.30753E-10	188.961305
3.36428E-10	187.428869
3.43561E-10	185.580879
3.46513E-10	184.81946
3.56859E-10	182.259018
3.56906E-10	182.247437
3.67605E-10	179.718414
3.70679E-10	179.021201
3.78631E-10	177.225609
3.85027E-10	175.840063
3.89981E-10	174.771571
3.99937E-10	172.711411
4.01678E-10	172.352694
4.13719E-10	169.9729
4.15418E-10	169.650722
4.26128E-10	167.629172
4.33326E-10	166.325775
4.38901E-10	165.32106
4.52007E-10	163.055526
4.52066E-10	163.045374
4.65617E-10	160.808835
4.71493E-10	159.878543
4.79583E-10	158.603744
4.91819E-10	156.754257
4.93959E-10	156.432273
5.08775E-10	154.29422
5.13021E-10	153.706464
5.24026E-10	152.190159
5.35137E-10	150.721827
5.39744E-10	150.115758
5.55923E-10	148.074392
5.58207E-10	147.797991
5.72598E-10	146.064422
5.82271E-10	144.94682
5.89762E-10	144.085176
6.07372E-10	142.142681
6.07452E-10	142.133896
6.25661E-10	140.216564
6.36241E-10	139.148161
6.44427E-10	138.325468
6.63744E-10	136.463819
6.66471E-10	136.211789
6.83653E-10	134.631461
6.98149E-10	133.352889
7.04146E-10	132.826396
7.25267E-10	131.048507
7.31319E-10	130.559979
7.47007E-10	129.299512
7.66080E-10	127.830205
7.69413E-10	127.574595
7.92477E-10	125.878712
8.02478E-10	125.173639
8.16247E-10	124.207474
8.40715E-10	122.561377
8.44168E-10	122.338642
8.65932E-10	120.941615
8.88025E-10	119.582002
8.91889E-10	119.345316
9.18641E-10	117.774478
9.34159E-10	116.900915
9.46178E-10	116.227455
9.74558E-10	114.703083
9.82691E-10	114.284281
1.00377E-09	113.203974
1.03388E-09	111.724969
1.03813E-09	111.525016
1.06487E-09	110.271674
1.09667E-09	108.843428
1.09681E-09	108.83699
1.12969E-09	107.428136
1.15853E-09	106.243501
1.16357E-09	106.037354
1.19845E-09	104.670628
1.22386E-09	103.716281
1.23440E-09	103.322426
1.27140E-09	101.996798
1.29836E-09	101.071201
1.30954E-09	100.689201
1.34879E-09	99.4036626
1.37739E-09	98.5060641
1.38925E-09	98.1356916
1.43089E-09	96.8891528
1.46742E-09	95.841214
1.47381E-09	95.6589
1.51799E-09	94.4503611
1.56332E-09	93.2621859
1.56352E-09	93.2568368
1.61039E-09	92.0851046
1.65869E-09	90.9279747
1.66550E-09	90.7715717
1.70841E-09	89.7912583
1.75966E-09	88.6695306
1.78186E-09	88.2037688
1.81240E-09	87.5661446
1.86677E-09	86.4788272
1.90635E-09	85.7202968
1.92272E-09	85.4079109
1.98039E-09	84.3540351
2.03976E-09	83.3147105
2.04814E-09	83.1741723
2.10094E-09	82.2926419
2.16392E-09	81.2854002
2.20051E-09	80.724683
2.22882E-09	80.2928844
2.29563E-09	79.3167945
2.36449E-09	78.3530946
2.37420E-09	78.2228708
2.43537E-09	77.4066808
2.50842E-09	76.4729936
2.57241E-09	75.6893705
2.58361E-09	75.552944
2.66110E-09	74.6484139
2.74087E-09	73.7565713
2.79899E-09	73.1341726
2.82308E-09	72.8773257
2.90771E-09	72.0133837
2.99492E-09	71.1605582
3.04552E-09	70.686669
3.08470E-09	70.3213789
3.17722E-09	69.4952572
3.27246E-09	68.68079
3.32780E-09	68.2274931
3.37062E-09	67.8784365
3.47166E-09	67.0895717
3.57579E-09	66.3109337
3.65160E-09	65.767947
3.68297E-09	65.5443286
3.79344E-09	64.7902359
3.90715E-09	64.0468602
4.02382E-09	63.3164247
4.02435E-09	63.3131528
4.14498E-09	62.5932442
4.26931E-09	61.8827641
4.39728E-09	61.1823951
4.45277E-09	60.8915709
4.52918E-09	60.4930339
4.66494E-09	59.8149232
4.80487E-09	59.1457135
4.94890E-09	58.4860525
4.96922E-09	58.3968974
5.09734E-09	57.8377078
5.25013E-09	57.1991175
5.40761E-09	56.5689342
5.56908E-09	55.9501835
5.56971E-09	55.9477844
5.73677E-09	55.3377209
5.90873E-09	54.7364703
6.08596E-09	54.1431649
6.26840E-09	53.558383
6.29414E-09	53.4793553
6.45641E-09	52.9837072
6.64995E-09	52.4177447
6.84941E-09	51.8592952
7.05473E-09	51.3089072
7.17403E-09	51.0026892
7.26633E-09	50.7669195
7.48415E-09	50.2342681
7.70863E-09	49.7087267
7.93970E-09	49.19081
8.17785E-09	48.6797738
8.24610E-09	48.5395547
8.42299E-09	48.1778587
8.67563E-09	47.6833484
8.93569E-09	47.1960482
9.20371E-09	46.7152632
9.47961E-09	46.2414604
9.55889E-09	46.1111077
9.76394E-09	45.7755745
1.00566E-08	45.3171361
1.03583E-08	44.8648645
1.06688E-08	44.4192019
1.09888E-08	43.9795072
1.12218E-08	43.673021
1.13182E-08	43.546806
1.16577E-08	43.121382
1.20071E-08	42.7022107
1.23672E-08	42.2886892
1.27380E-08	41.8812216
1.31200E-08	41.4792223
1.33417E-08	41.2559765
1.35133E-08	41.0838987
1.39186E-08	40.6949778
1.43359E-08	40.3117855
1.47659E-08	39.9337725
1.52085E-08	39.5613086
1.56647E-08	39.1938611
1.61324E-08	38.8331923
1.61342E-08	38.8317962
1.66182E-08	38.4763203
1.71163E-08	38.1261037
1.76297E-08	37.7806461
1.81582E-08	37.4402888
1.87028E-08	37.1045439
1.92635E-08	36.7737428
1.98412E-08	36.4474117
1.99227E-08	36.4033581
2.04360E-08	36.127248
2.10490E-08	35.8116443
2.16799E-08	35.500727
2.23302E-08	35.1940519
2.29996E-08	34.8919187
2.36894E-08	34.5938947
2.43996E-08	34.3002714
2.52141E-08	33.9792189
2.52687E-08	33.9577214
2.53000E-08	33.9457569
2.60589E-08	33.6625406
2.68400E-08	33.383548
2.76450E-08	33.1083813
2.84737E-08	32.8373111
2.93278E-08	32.5699509
3.02069E-08	32.3065637
3.11130E-08	32.0467724
3.20456E-08	31.7908306
3.30068E-08	31.5383707
3.31461E-08	31.5033491
3.39962E-08	31.2906785
3.50159E-08	31.0465617
3.60655E-08	30.8060867
3.71473E-08	30.5689076
3.82608E-08	30.3352557
3.94084E-08	30.1047969
4.05898E-08	29.8777579
4.18072E-08	29.6538157
4.30604E-08	29.4331915
4.43520E-08	29.215572
4.51071E-08	29.0937968
4.56815E-08	29.0016136
4.70517E-08	28.791181
4.84621E-08	28.5839019
4.99157E-08	28.3794812
5.14120E-08	28.1781206
5.29541E-08	27.9795332
5.45414E-08	27.7839152
5.61773E-08	27.5909888
5.78613E-08	27.4009452
5.95968E-08	27.2135145
6.13833E-08	27.0288816
6.32245E-08	26.8467815
6.51197E-08	26.6673902
6.70729E-08	26.4913154
6.90835E-08	26.3178804
7.11556E-08	26.1468315
7.32886E-08	25.9783331
7.54868E-08	25.8121433
7.77496E-08	25.6484271
8.00817E-08	25.4869539
8.24822E-08	25.3278861
8.49562E-08	25.1709995
8.75029E-08	25.0164503
9.01274E-08	24.8640187
9.28291E-08	24.7138547
9.56135E-08	24.5657437
9.84796E-08	24.4198309
1.01433E-07	24.2759074
1.02293E-07	24.2358093
1.04474E-07	24.1346075
1.07608E-07	23.9954505
1.10833E-07	23.858379
1.14158E-07	23.7231979
1.17580E-07	23.5900422
1.21106E-07	23.4587251
1.24737E-07	23.3293797
1.28478E-07	23.2018239
1.32329E-07	23.0761812
1.36298E-07	22.9522636
1.40384E-07	22.8301806
1.44595E-07	22.7097473
1.48929E-07	22.5910788
1.53396E-07	22.474009
1.57995E-07	22.3586592
1.62733E-07	22.2448702
1.67612E-07	22.1327566
1.72639E-07	22.022159
1.77814E-07	21.913186
1.83147E-07	21.8056814
1.88637E-07	21.7002671
1.94296E-07	21.5962899
2.00120E-07	21.4938516
2.06122E-07	21.3928054
2.12301E-07	21.2932503
2.18669E-07	21.1950435
2.25224E-07	21.0982811
2.31979E-07	21.0028244
2.38933E-07	20.9087675
2.46100E-07	20.8159782
2.53477E-07	20.7245536
2.61080E-07	20.6343712
2.68906E-07	20.5455204
2.76971E-07	20.4578583
2.85274E-07	20.3714472
2.93830E-07	20.2861535
3.02638E-07	20.2020682
3.11716E-07	20.1190821
3.21060E-07	20.0372824
3.30690E-07	19.9565531
3.40603E-07	19.876973
3.50819E-07	19.7984271
3.61335E-07	19.7209918
3.72173E-07	19.6445552
3.83329E-07	19.5691913
3.94827E-07	19.4947911
4.06662E-07	19.4214267
4.18860E-07	19.3489917
4.31416E-07	19.2778663
4.44356E-07	19.2076462
4.57676E-07	19.1383994
4.71403E-07	19.0700256
4.85534E-07	19.0025909
5.00097E-07	18.9360008
5.15088E-07	18.8703314
5.30538E-07	18.8055025
5.46442E-07	18.7415592
5.62832E-07	18.6783679
5.79703E-07	18.6159887
5.97091E-07	18.5543508
6.14990E-07	18.4935149
6.33436E-07	18.4333917
6.52424E-07	18.3740429
6.71993E-07	18.3153839
6.92136E-07	18.2574706
7.12897E-07	18.2002183
7.34266E-07	18.1436809
7.56290E-07	18.0877755
7.78961E-07	18.0325546
8.02325E-07	17.9779371
8.26376E-07	17.923974
8.51163E-07	17.8705858
8.76677E-07	17.8178223
9.02972E-07	17.7656053
9.30040E-07	17.7139835
9.57936E-07	17.6628802
9.86651E-07	17.6123426
1.01196E-06	17.5694267
1.04051E-06	17.5227012
1.06987E-06	17.4764175
1.10006E-06	17.4305827
1.13110E-06	17.3852032
1.16301E-06	17.3402043
1.19583E-06	17.2955555
1.22957E-06	17.2512779
1.26427E-06	17.2073681
1.29994E-06	17.1638146
1.33662E-06	17.1206054
1.37433E-06	17.0777283
1.41311E-06	17.0351714
1.45298E-06	16.9929226
1.51506E-06	16.9299553
1.57948E-06	16.8679025
1.64696E-06	16.8061461
1.71699E-06	16.7452701
1.79035E-06	16.6846722
1.86647E-06	16.6246313
1.94622E-06	16.5647771
2.02897E-06	16.505573
2.11565E-06	16.4464215
2.20561E-06	16.3878259
2.29984E-06	16.3291965
2.39764E-06	16.2710418
2.50007E-06	16.21298
2.60638E-06	16.1550223
2.71773E-06	16.0968487
2.87326E-06	16.0194954
3.03769E-06	15.9420168
3.21154E-06	15.8642791
3.39533E-06	15.7862144
3.58964E-06	15.7076448
3.79508E-06	15.6284848
4.06809E-06	15.5288193
4.36158E-06	15.4270961
4.67534E-06	15.3240403
5.01264E-06	15.2187166
5.37323E-06	15.1065636
5.76088E-06	14.991285
6.52871E-06	14.7758742
6.99973E-06	14.6502574
7.50327E-06	14.5207659
8.15651E-06	14.3590642
8.86662E-06	14.1896578
9.24542E-06	14.10305
9.77453E-06	13.9704898
1.06255E-05	13.7644469
1.17113E-05	13.5106356
1.30901E-05	13.2021637
1.33024E-05	13.1486184
1.42621E-05	12.9162192
1.50783E-05	12.7230051
1.59050E-05	12.5322474
1.59412E-05	12.522737
1.68535E-05	12.2893636
1.78180E-05	12.0501413
1.82792E-05	11.9397509
1.88378E-05	11.7870885
1.96388E-05	11.5757795
2.01509E-05	11.4456415
2.04778E-05	11.3495124
2.16497E-05	11.0208485
2.19053E-05	10.9528768
2.22606E-05	10.8439117
2.28887E-05	10.6584781
2.31589E-05	10.582394
2.35345E-05	10.4604264
2.41986E-05	10.2559378
2.44842E-05	10.1725491
2.47083E-05	10.0964402
2.52276E-05	9.92920216
2.55253E-05	9.83929803
2.57614E-05	9.75583389
2.63053E-05	9.5763149
2.66159E-05	9.48264385
2.68594E-05	9.39648147
2.72357E-05	9.27375789
2.73669E-05	9.23461934
2.76173E-05	9.1476891
2.80042E-05	9.02288228
2.81391E-05	8.9842902
2.83966E-05	8.89561247
2.87944E-05	8.77452258
2.89330E-05	8.73871851
2.91978E-05	8.65505632
2.95425E-05	8.56488931
2.96069E-05	8.54446012
2.99166E-05	8.46339502
3.01633E-05	8.41246639
3.02320E-05	8.39406629
3.05474E-05	8.32964084
3.08016E-05	8.2964393
3.08688E-05	8.2836153
3.11932E-05	8.24943182
3.13426E-05	8.24845519
3.15175E-05	8.23822736
3.17398E-05	8.24802311
3.17801E-05	8.25331893
3.19621E-05	8.26913769
3.21845E-05	8.31063904
3.22270E-05	8.32336853
3.24068E-05	8.36954927
3.26354E-05	8.45783845
3.27331E-05	8.51012576
3.28640E-05	8.57568458
3.30926E-05	8.72876519
3.33212E-05	8.92468816
3.34975E-05	9.11054337
3.36738E-05	9.33143273
3.38350E-05	9.56866376
3.38501E-05	9.59132712
3.40264E-05	9.89953502
3.40638E-05	9.97522743
3.42027E-05	10.2613378
3.42239E-05	10.310828
3.43377E-05	10.5806764
3.43611E-05	10.6427333
3.44793E-05	10.9613148
3.44904E-05	10.9916408
3.45746E-05	11.2510178
3.46430E-05	11.4644068
3.46509E-05	11.4918777
3.47119E-05	11.7077542
3.47805E-05	11.9532342
3.47957E-05	12.0081443
3.48377E-05	12.1778227
3.48911E-05	12.3954988
3.49387E-05	12.5917041
3.49406E-05	12.5996194
3.49768E-05	12.7663659
3.50150E-05	12.9431617
3.50512E-05	13.1123636
3.50779E-05	13.2379446
3.50845E-05	13.2727451
3.51112E-05	13.4127658
3.51370E-05	13.5485046
3.51598E-05	13.6697758
3.51827E-05	13.7916456
3.52056E-05	13.9141345
3.52228E-05	14.0064195
3.52380E-05	14.0980994
3.52533E-05	14.1900774
3.52685E-05	14.28236
3.52838E-05	14.374954
3.52971E-05	14.4562349
3.53104E-05	14.5377637
3.53238E-05	14.6195465
3.53371E-05	14.7015868
3.53486E-05	14.7721166
3.53600E-05	14.842843
3.53714E-05	14.9137693
3.53753E-05	14.9374791
3.53829E-05	14.9901006
3.53943E-05	15.0692395
3.54058E-05	15.1485883
3.54172E-05	15.2281505
3.54286E-05	15.3079298
3.54382E-05	15.3745812
3.54477E-05	15.4413872
3.54572E-05	15.5083514
3.54668E-05	15.5754745
3.54763E-05	15.6427601
3.54858E-05	15.7102091
3.54944E-05	15.7710562
3.55030E-05	15.8320389
3.55115E-05	15.8931598
3.55125E-05	15.8999664
3.55201E-05	15.9600664
3.55297E-05	16.0353579
3.55392E-05	16.1108258
3.55487E-05	16.186474
3.55583E-05	16.2623036
3.55697E-05	16.3535435
3.55811E-05	16.4450536
3.55926E-05	16.5368385
3.56040E-05	16.6289027
3.56154E-05	16.7212508
3.56269E-05	16.8138877
3.56383E-05	16.906818
3.56498E-05	17.0000468
3.56612E-05	17.1032806
3.56726E-05	17.2068228
3.56841E-05	17.3106785
3.56955E-05	17.4148531
3.57108E-05	17.5542577
3.57260E-05	17.6942514
3.57413E-05	17.8348475
3.57565E-05	17.9760594
3.57708E-05	18.1090174
3.57870E-05	18.2604515
3.57899E-05	18.2897141
3.58089E-05	18.4858289
3.58280E-05	18.6830058
3.58423E-05	18.831604
3.58613E-05	19.0307128
3.58804E-05	19.2309687
3.58995E-05	19.4324045
3.59014E-05	19.4526751
3.59204E-05	19.6728952
3.59433E-05	19.9388884
3.59662E-05	20.2067462
3.59891E-05	20.4765329
3.60138E-05	20.7710566
3.60158E-05	20.793906
3.60405E-05	21.1162874
3.60672E-05	21.4663995
3.60939E-05	21.8195636
3.61244E-05	22.2270767
3.61263E-05	22.2527953
3.61501E-05	22.6004257
3.61759E-05	22.9790789
3.62016E-05	23.361076
3.62273E-05	23.746549
3.62293E-05	23.7753747
3.62540E-05	24.1797442
3.62826E-05	24.6508226
3.63112E-05	25.1267633
3.63322E-05	25.4795113
3.63398E-05	25.6185166
3.63684E-05	26.1451006
3.63970E-05	26.6772399
3.64313E-05	27.3235055
3.64428E-05	27.5418742
3.64656E-05	28.01749
3.64999E-05	28.7402518
3.65343E-05	29.472881
3.65571E-05	29.9682541
3.65686E-05	30.2388169
3.66029E-05	31.0615349
3.66372E-05	31.8959215
3.66715E-05	32.7426572
3.67058E-05	33.6679329
3.67401E-05	34.6070591
3.67478E-05	34.8191099
3.67763E-05	35.6636144
3.68164E-05	36.8662036
3.68240E-05	37.0996062
3.68564E-05	38.1538536
3.68964E-05	39.4805723
3.69003E-05	39.6094218
3.69365E-05	40.9113128
3.69765E-05	42.3783731
3.70165E-05	43.9721366
3.70528E-05	45.4435291
3.70566E-05	45.6087526
3.70966E-05	47.3786057
3.71290E-05	48.8418718
3.71366E-05	49.2095302
3.71767E-05	51.1804149
3.72053E-05	52.6195507
3.72167E-05	53.2349426
3.72567E-05	55.4362698
3.72815E-05	56.8307696
3.72968E-05	57.7492611
3.73368E-05	60.2158984
3.73578E-05	61.5395153
3.73768E-05	62.8290803
3.74168E-05	65.6026034
3.74340E-05	66.8217309
3.74569E-05	68.5662373
3.74969E-05	71.6965285
3.75103E-05	72.7680712
3.75369E-05	75.0497364
3.75674E-05	77.727495
3.75770E-05	78.6123032
3.76170E-05	82.4290953
3.76246E-05	83.1770853
3.76570E-05	86.5391917
3.76818E-05	89.1849728
3.76971E-05	90.9101985
3.77371E-05	95.5715796
3.77390E-05	95.8004945
3.77771E-05	100.65314
3.77962E-05	103.156084
3.78172E-05	106.080479
3.78534E-05	111.292486
3.78572E-05	111.875937
3.78972E-05	118.198894
3.79087E-05	120.0678
3.79373E-05	125.02203
3.79601E-05	129.124079
3.79773E-05	132.386208
3.80116E-05	139.1423
3.80173E-05	140.338777
3.80562E-05	148.764077
3.80631E-05	150.30536
3.80928E-05	157.403672
3.81145E-05	162.777401
3.81294E-05	166.695358
3.81660E-05	176.689966
3.82026E-05	187.721252
3.82118E-05	190.588985
3.82392E-05	199.71526
3.82575E-05	206.046793
3.82758E-05	212.778974
3.83033E-05	223.296096
3.83124E-05	227.033188
3.83490E-05	242.614225
3.83734E-05	254.112155
3.83948E-05	264.478017
3.83978E-05	266.044555
3.84222E-05	278.958372
3.84253E-05	280.635418
3.84558E-05	298.182679
3.84863E-05	317.396593
3.84878E-05	318.405968
3.85168E-05	338.427527
3.85198E-05	340.644657
3.85473E-05	361.510412
3.85518E-05	365.173844
3.85732E-05	382.936247
3.85778E-05	386.869789
3.85945E-05	402.066151
3.86083E-05	414.919881
3.86159E-05	422.461784
3.86372E-05	444.300491
3.86388E-05	445.917395
3.86586E-05	468.066995
3.86662E-05	476.902172
3.86799E-05	493.600297
3.86906E-05	507.080053
3.87013E-05	521.217325
3.87150E-05	540.100251
3.87226E-05	551.121295
3.87394E-05	576.334447
3.87440E-05	583.571964
3.87638E-05	616.218685
3.87653E-05	618.867256
3.87844E-05	653.286773
3.87882E-05	660.43066
3.88012E-05	686.057324
3.88126E-05	709.479971
3.88179E-05	721.045194
3.88347E-05	758.711631
3.88370E-05	764.047876
3.88515E-05	799.703683
3.88584E-05	817.261975
3.88683E-05	843.883762
3.88767E-05	867.323782
3.88850E-05	891.878424
3.88950E-05	922.108711
3.89018E-05	944.067385
3.89133E-05	982.198139
3.89178E-05	998.228494
3.89316E-05	1048.28612
3.89331E-05	1054.14283
3.89483E-05	1115.09673
3.89499E-05	1121.4594
3.89636E-05	1181.74647
3.89682E-05	1202.74155
3.89788E-05	1254.4159
3.89865E-05	1293.00987
3.89941E-05	1333.69966
3.90032E-05	1384.79932
3.90093E-05	1420.59958
3.90185E-05	1476.85637
3.90246E-05	1516.21819
3.90337E-05	1578.06053
3.90391E-05	1615.9564
3.90490E-05	1689.55292
3.90528E-05	1719.31626
3.90642E-05	1812.62987
3.90665E-05	1832.2707
3.90795E-05	1948.63199
3.90802E-05	1955.84096
3.90940E-05	2091.54697
3.90947E-05	2099.4517
3.91077E-05	2240.73267
3.91100E-05	2266.87543
3.91214E-05	2404.17528
3.91245E-05	2442.56638
3.91351E-05	2583.3615
3.91382E-05	2625.4826
3.91481E-05	2768.72992
3.91519E-05	2826.2542
3.91603E-05	2958.65848
3.91656E-05	3046.48022
3.91725E-05	3164.58043
3.91794E-05	3287.6078
3.91847E-05	3387.64455
3.91931E-05	3551.29306
3.91969E-05	3629.00869
3.92068E-05	3839.19156
3.92091E-05	3889.82378
3.92205E-05	4152.92457
3.92213E-05	4171.17217
3.92327E-05	4455.37114
3.92335E-05	4475.1269
3.92442E-05	4761.31052
3.92488E-05	4888.53528
3.92579E-05	5154.48593
3.92648E-05	5361.94572
3.92716E-05	5578.32706
3.92808E-05	5877.80756
3.92854E-05	6033.60714
3.92968E-05	6437.06302
3.92991E-05	6520.78694
3.93128E-05	7039.96024
3.93296E-05	7720.42084
3.93311E-05	7784.46462
3.93464E-05	8446.34583
3.93494E-05	8582.80643
3.93631E-05	9214.37612
3.93677E-05	9431.38335
3.93868E-05	10359.8321
3.93936E-05	10703.4967
3.94142E-05	11756.8824
3.94676E-05	14522.2195
3.94760E-05	14946.3364
3.94882E-05	15543.8183
3.95016E-05	16179.3651
3.95082E-05	16475.052
3.95254E-05	17215.9207
3.95269E-05	17277.0786
3.95457E-05	17981.8209
3.95470E-05	18029.8386
3.95599E-05	18436.6175
3.95666E-05	18632.0316
3.95757E-05	18869.4282
3.95824E-05	19024.5688
3.95897E-05	19169.1904
3.96007E-05	19350.5262
3.96080E-05	19443.3847
3.96190E-05	19537.8224
3.96289E-05	19581.286
3.96395E-05	19586.8181
3.96446E-05	19568.1066
3.96568E-05	19480.6641
3.96629E-05	19413.6494
3.96751E-05	19234.6773
3.96812E-05	19124.239
3.96904E-05	18927.0861
3.96995E-05	18700.6683
3.97087E-05	18445.7408
3.97178E-05	18163.8234
3.97244E-05	17943.9498
3.97361E-05	17518.7979
3.97441E-05	17213.2941
3.97554E-05	16750.6312
3.97637E-05	16389.0722
3.97816E-05	15584.6643
3.97856E-05	15399.3125
3.98679E-05	11403.8128
3.98694E-05	11331.8385
3.98862E-05	10559.7114
3.98923E-05	10286.1283
3.99045E-05	9755.49631
3.99121E-05	9434.40173
3.99228E-05	9001.05584
3.99320E-05	8644.00089
3.99421E-05	8264.98693
3.99518E-05	7918.13135
3.99566E-05	7753.48282
3.99666E-05	7421.26813
3.99711E-05	7281.28399
3.99787E-05	7051.56461
3.99952E-05	6581.76232
4.00000E-05	6450.37405
4.01000E-05	3333
4.02000E-05	2222
4.04000E-05	1111
4.05000E-05	555
4.08000E-05	43
4.10000E-05	43
4.20000E-05	43
4.30000E-05	43
4.40205E-05	43.6226779
4.69124E-05	42.4437392
4.84375E-05	41.8478249
5.12500E-05	40.9075084
5.55880E-05	39.5398018
5.68750E-05	39.153044
6.13717E-05	37.9981265
6.71554E-05	36.5933184
6.81250E-05	36.368767
7.37500E-05	35.2751177
7.93750E-05	34.2329589
8.16147E-05	33.8327422
8.50000E-05	33.317947
9.31821E-05	32.1297398
9.62500E-05	31.7013917
1.01875E-04	31.0362682
1.10533E-04	30.0609617
1.13125E-04	29.778058
1.18750E-04	29.2626202
1.30000E-04	28.2747039
1.35625E-04	27.7993264
1.41250E-04	27.4073691
1.52500E-04	26.6528339
1.63750E-04	25.9219454
1.79938E-04	25.09415
1.91505E-04	24.5203323
1.97500E-04	24.2308051
2.08750E-04	23.7889585
2.26208E-04	23.1290912
2.37775E-04	22.7051519
2.49343E-04	22.3605769
2.72477E-04	21.6963723
2.87500E-04	21.2781485
2.98750E-04	21.0284742
3.32500E-04	20.3076004
3.51529E-04	19.9146764
3.65017E-04	19.6919278
4.00000E-04	19.1305505
4.25000E-04	18.7438571
4.36992E-04	18.5961596
4.75000E-04	18.13911
5.14108E-04	17.6814514
5.25000E-04	17.5803051
5.75000E-04	17.1292311
6.25000E-04	16.6895279
6.42635E-04	16.5672505
7.00000E-04	16.1795804
7.50000E-04	15.8492727
7.71162E-04	15.7381466
8.22573E-04	15.4736344
9.00000E-04	15.0824449
1.00000E-03	14.6955036
1.09248E-03	14.3461603
1.12500E-03	14.2515923
1.25000E-03	13.8963943
1.34953E-03	13.6184116
1.37500E-03	13.5638521
1.54232E-03	13.2125912
1.62500E-03	13.0415936
1.71800E-03	12.8947371
1.92791E-03	12.5695969
2.00000E-03	12.4595097
2.18496E-03	12.2501093
2.50000E-03	11.8999786
2.82760E-03	11.6418991
3.17169E-03	11.3747397
3.34170E-03	11.279221
3.85581E-03	10.9961521
4.00000E-03	10.9177342
4.50000E-03	10.7275409
5.14108E-03	10.4881831
5.81476E-03	10.3147507
6.68341E-03	10.0950758
7.71162E-03	9.92023138
8.73984E-03	9.74825405
8.98645E-03	9.72080427
1.02822E-02	9.58006737
1.15674E-02	9.44299109
1.18750E-02	9.41067027
1.28527E-02	9.3445761
1.41380E-02	9.25911064
1.54232E-02	9.17494358
1.62500E-02	9.121628
1.71800E-02	9.08391551
1.92791E-02	9.00075173
2.12500E-02	8.92410783
2.31349E-02	8.85212785
2.37500E-02	8.83784682
2.62500E-02	8.78139436
2.95612E-02	8.70850772
3.25000E-02	8.64512945
3.43599E-02	8.60570207
3.59876E-02	8.58549585
3.96461E-02	8.54105872
4.36992E-02	8.49298812
4.88403E-02	8.43316161
5.39814E-02	8.37438519
6.00000E-02	8.33531889
6.68341E-02	8.29222452
7.50000E-02	8.24149994
8.22573E-02	8.19711006
9.25395E-02	8.13498071
1.00000E-01	8.1011726
1.00000E-01	8.08607313
1.16549E-01	8.05419523
1.29983E-01	8.0286372
1.50000E-01	7.99090282
1.72391E-01	7.95017852
2.00000E-01	7.88283324
2.36340E-01	7.79544172
2.50000E-01	7.75428728
3.00000E-01	7.60447716
3.04232E-01	7.59185633
3.67677E-01	7.33151308
3.85713E-01	7.2719256
4.45307E-01	7.07478762
5.00000E-01	6.92226581
5.59225E-01	6.69108389
6.08301E-01	6.52209601
6.25726E-01	6.4620711
7.86062E-01	5.97365652
7.90826E-01	5.95949189
7.94745E-01	5.94767144
8.00000E-01	5.93222638
8.11865E-01	5.90010915
8.22392E-01	5.87133768
8.33055E-01	5.84168276
8.41143E-01	5.81929527
8.55486E-01	5.77884344
8.55486E-01	5.77884344
8.71125E-01	5.7340371
8.77461E-01	5.71595299
9.00000E-01	5.65016645
9.24021E-01	5.58960127
9.61260E-01	5.49374292
9.87002E-01	5.42590904
1.00000E+00	5.40248653
1.05737E+00	5.26053063
1.07972E+00	5.20408294
1.13770E+00	5.08631457
1.17396E+00	5.01041281
1.25000E+00	4.87620171
1.36609E+00	4.68787767
1.37007E+00	4.68130537
1.49296E+00	4.50538145
1.49648E+00	4.50475784
1.49990E+00	4.50209982
1.50000E+00	4.50203192
1.50582E+00	4.49272544
1.50936E+00	4.48832117
1.51635E+00	4.47960714
1.53000E+00	4.46256017
1.53347E+00	4.45819951
1.54290E+00	4.44620413
1.55900E+00	4.42560653
1.55980E+00	4.42456615
1.56347E+00	4.41981765
1.56738E+00	4.41560325
1.59171E+00	4.38917162
1.59873E+00	4.38141188
1.60532E+00	4.37406271
1.61962E+00	4.35815835
1.62333E+00	4.35395446
1.62545E+00	4.35161441
1.65411E+00	4.31973601
1.65556E+00	4.31844833
1.66503E+00	4.31012092
1.66888E+00	4.30663459
1.70699E+00	4.27165991
1.70896E+00	4.26980261
1.75000E+00	4.23068888
1.84292E+00	4.15499703
1.84708E+00	4.1517256
1.85516E+00	4.14535333
1.88385E+00	4.12259353
1.90760E+00	4.10358923
1.93752E+00	4.07945808
1.93924E+00	4.07820934
1.98069E+00	4.04785993
1.98550E+00	4.04615371
2.00000E+00	4.04095149
2.02743E+00	4.02217161
2.05897E+00	4.0003783
2.05991E+00	3.99987748
2.11968E+00	3.9673072
2.12452E+00	3.96458261
2.13364E+00	3.95944203
2.14968E+00	3.95034517
2.17397E+00	3.93645741
2.19854E+00	3.92227574
2.20618E+00	3.91918762
2.22106E+00	3.91316001
2.23510E+00	3.90745566
2.24284E+00	3.90429958
2.26167E+00	3.89646343
2.28060E+00	3.88854672
2.28517E+00	3.88659125
2.32403E+00	3.86987224
2.32689E+00	3.868611
2.33898E+00	3.8632404
2.34199E+00	3.86190458
2.38281E+00	3.84332373
2.38943E+00	3.84027737
2.39865E+00	3.83623042
2.42689E+00	3.82353909
2.45668E+00	3.81508541
2.46336E+00	3.81244755
2.47510E+00	3.80779975
2.50424E+00	3.79617021
2.51064E+00	3.79361388
2.51906E+00	3.79073239
2.53385E+00	3.7856475
2.54448E+00	3.78197557
2.55621E+00	3.77785508
2.56621E+00	3.77432282
2.57877E+00	3.76988128
2.57976E+00	3.76975414
2.58317E+00	3.76931703
2.58758E+00	3.76851551
2.58956E+00	3.76799436
2.59332E+00	3.76700536
2.60411E+00	3.76415694
2.60542E+00	3.76380945
2.61060E+00	3.76243378
2.61775E+00	3.7605236
2.62310E+00	3.75909295
2.62969E+00	3.75731644
2.63383E+00	3.75620161
2.64127E+00	3.75413297
2.64552E+00	3.75294822
2.65185E+00	3.75117283
2.65248E+00	3.75099473
2.66334E+00	3.7479194
2.67386E+00	3.74494017
2.68091E+00	3.74294291
2.68405E+00	3.74230118
2.69392E+00	3.7402826
2.69712E+00	3.73962981
2.70349E+00	3.73832256
2.71275E+00	3.73642158
2.71729E+00	3.7354904
2.72173E+00	3.73457542
2.72527E+00	3.73384463
2.73464E+00	3.73187509
2.74701E+00	3.72927258
2.75072E+00	3.72849195
2.75875E+00	3.7267932
2.77000E+00	3.7244117
2.77037E+00	3.72433186
2.78066E+00	3.72205133
2.79024E+00	3.71992863
2.79089E+00	3.71978391
2.79320E+00	3.71926753
2.80059E+00	3.71757889
2.80989E+00	3.71545451
2.82177E+00	3.7127397
2.83291E+00	3.71019457
2.84335E+00	3.70780851
2.85314E+00	3.70557158
2.86232E+00	3.70347445
2.86282E+00	3.70336075
2.87509E+00	3.70164652
2.87934E+00	3.70105332
2.88656E+00	3.70004359
2.89830E+00	3.69840069
2.90351E+00	3.69767156
2.91557E+00	3.69598236
2.92613E+00	3.69450432
2.92699E+00	3.69438317
2.93536E+00	3.69320902
2.94697E+00	3.69157952
2.95596E+00	3.69031896
2.95670E+00	3.69016442
2.96206E+00	3.68903746
2.96752E+00	3.68789129
2.97912E+00	3.68545566
2.98045E+00	3.68517667
2.98956E+00	3.6835339
3.00000E+00	3.68165155
3.00675E+00	3.6817974
3.01563E+00	3.68196594
3.02019E+00	3.68205263
3.03101E+00	3.6822024
3.04615E+00	3.68241206
3.04683E+00	3.68242146
3.05357E+00	3.68245927
3.06105E+00	3.68250041
3.07572E+00	3.6825811
3.08028E+00	3.68260618
3.08554E+00	3.6826335
3.09016E+00	3.68261402
3.10438E+00	3.68255412
3.10553E+00	3.68254926
3.10984E+00	3.68253068
3.11837E+00	3.68257525
3.12311E+00	3.6826
3.13215E+00	3.68255361
3.14571E+00	3.68248403
3.15505E+00	3.68243609
3.15583E+00	3.682432
3.15906E+00	3.68241407
3.15916E+00	3.68241352
3.17179E+00	3.68246757
3.17220E+00	3.68246373
3.18513E+00	3.68234222
3.19786E+00	3.68222261
3.20925E+00	3.68211562
3.21040E+00	3.68211077
3.22273E+00	3.68205852
3.22371E+00	3.6820544
3.22453E+00	3.68206423
3.24077E+00	3.68225699
3.24086E+00	3.68225653
3.25074E+00	3.68220275
3.25860E+00	3.68215692
3.27589E+00	3.68205619
3.28963E+00	3.68197614
3.29282E+00	3.68195715
3.29884E+00	3.68192131
3.30930E+00	3.68195375
3.31184E+00	3.6819616
3.32545E+00	3.68218339
3.32717E+00	3.68221142
3.34118E+00	3.68209725
3.35658E+00	3.68197173
3.37101E+00	3.68185405
3.37158E+00	3.68184936
3.37673E+00	3.6818066
3.38627E+00	3.68172317
3.39092E+00	3.68168249
3.40058E+00	3.68164184
3.40237E+00	3.68163428
3.41459E+00	3.68159859
3.42824E+00	3.68155872
3.45033E+00	3.68149419
3.46167E+00	3.68146106
3.46751E+00	3.68149898
3.47190E+00	3.68152748
3.47393E+00	3.68155796
3.47842E+00	3.68150601
3.48415E+00	3.68143871
3.50000E+00	3.68125242
3.50027E+00	3.68124927
3.51588E+00	3.68106575
3.52279E+00	3.68098456
3.53101E+00	3.68088475
3.54284E+00	3.68074116
3.54567E+00	3.68072235
3.55987E+00	3.68062794
3.57362E+00	3.68053648
3.58695E+00	3.68044787
3.59700E+00	3.68038104
3.59858E+00	3.68039525
3.59985E+00	3.68038102
3.60207E+00	3.6803563
3.61236E+00	3.68023966
3.62500E+00	3.68009639
3.63034E+00	3.68003588
3.63647E+00	3.67996637
3.64506E+00	3.67986557
3.64758E+00	3.6798582
3.64844E+00	3.67985567
3.65198E+00	3.67984527
3.65942E+00	3.67986176
3.66208E+00	3.67986765
3.66392E+00	3.67987173
3.66472E+00	3.6798735
3.66734E+00	3.67987931
3.66994E+00	3.67988507
3.67252E+00	3.67989078
3.67635E+00	3.67989926
3.67959E+00	3.67990645
3.68014E+00	3.67990765
3.68388E+00	3.67991594
3.68758E+00	3.67992414
3.69123E+00	3.67993223
3.69446E+00	3.67993939
3.69484E+00	3.67994024
3.69499E+00	3.67994057
3.69767E+00	3.67989027
3.69841E+00	3.67987643
3.70194E+00	3.67980971
3.70350E+00	3.67978008
3.70542E+00	3.67974461
3.70870E+00	3.67968386
3.70887E+00	3.6796808
3.71227E+00	3.67961781
3.71564E+00	3.67955547
3.71896E+00	3.67949395
3.72222E+00	3.67943374
3.72225E+00	3.67943307
3.72550E+00	3.67937297
3.72871E+00	3.67931351
3.73188E+00	3.67925481
3.73502E+00	3.67919673
3.73517E+00	3.67919398
3.73812E+00	3.6791394
3.74118E+00	3.67908266
3.74421E+00	3.67902666
3.74720E+00	3.67897125
3.75016E+00	3.67891655
3.75172E+00	3.67888759
3.75308E+00	3.67886243
3.75597E+00	3.67880901
3.75882E+00	3.67875614
3.76164E+00	3.67870396
3.76449E+00	3.67865127
3.76627E+00	3.67863012
3.76724E+00	3.67861865
3.76992E+00	3.67858681
3.77352E+00	3.67854418
3.77706E+00	3.67850221
3.78054E+00	3.6784609
3.78178E+00	3.67844613
3.78397E+00	3.67842024
3.78734E+00	3.67838021
3.79067E+00	3.6783408
3.79315E+00	3.67831136
3.79394E+00	3.67831163
3.79542E+00	3.67831216
3.79716E+00	3.67831277
3.80033E+00	3.67831388
3.80345E+00	3.67831498
3.80652E+00	3.67831606
3.80821E+00	3.67831666
3.80954E+00	3.67831713
3.81252E+00	3.67831818
3.81391E+00	3.67831867
3.81545E+00	3.6783185
3.81833E+00	3.67831818
3.81841E+00	3.67831817
3.82117E+00	3.67833981
3.82396E+00	3.67836172
3.82600E+00	3.67837767
3.82671E+00	3.67838329
3.82942E+00	3.67840453
3.83209E+00	3.67842543
3.83471E+00	3.678446
3.83856E+00	3.67847623
3.84197E+00	3.67850294
3.84234E+00	3.67850582
3.84447E+00	3.67852256
3.84587E+00	3.67848988
3.84601E+00	3.67848644
3.84961E+00	3.6784015
3.85312E+00	3.67831875
3.85655E+00	3.67823773
3.85990E+00	3.67815881
3.86317E+00	3.67808152
3.86559E+00	3.67802456
3.86636E+00	3.67800624
3.86949E+00	3.67793252
3.87253E+00	3.67786072
3.87551E+00	3.6777904
3.87841E+00	3.67772191
3.88239E+00	3.67762808
3.88311E+00	3.67761105
3.88676E+00	3.67752486
3.89030E+00	3.67744135
3.89373E+00	3.67736046
3.89705E+00	3.67728209
3.89709E+00	3.67728116
3.90027E+00	3.67720618
3.90338E+00	3.67713263
3.90640E+00	3.67706139
3.90933E+00	3.67699237
3.90995E+00	3.67697762
3.91216E+00	3.67692551
3.91491E+00	3.67686074
3.91757E+00	3.67679799
3.92139E+00	3.67670776
3.92506E+00	3.67662127
3.92613E+00	3.67659582
3.92853E+00	3.67653924
3.93186E+00	3.67646061
3.93502E+00	3.67638603
3.93805E+00	3.67631454
3.93968E+00	3.67627628
3.94093E+00	3.67624674
3.94368E+00	3.67618175
3.94720E+00	3.6760987
3.95050E+00	3.67602084
3.95360E+00	3.67594785
3.95476E+00	3.67592044
3.95650E+00	3.67587942
3.95921E+00	3.67581526
3.96300E+00	3.67572602
3.96639E+00	3.67564588
3.97092E+00	3.67553921
3.97142E+00	3.67552739
3.97499E+00	3.67544309
3.97812E+00	3.67536934
3.98085E+00	3.6753048
3.98429E+00	3.67522363
3.98546E+00	3.67519613
3.98717E+00	3.67515569
3.99038E+00	3.67508004
3.99278E+00	3.6750233
3.99639E+00	3.67493819
4.00000E+00	3.67485309
4.01563E+00	3.67771037
4.02332E+00	3.67911669
4.03101E+00	3.68052302
4.04615E+00	3.68329172
4.06105E+00	3.68601716
4.06839E+00	3.68735859
4.07572E+00	3.68870002
4.09016E+00	3.69134097
4.10438E+00	3.69394065
4.11138E+00	3.69522019
4.11314E+00	3.6955431
4.11837E+00	3.69634475
4.13215E+00	3.69845577
4.14571E+00	3.7005338
4.15906E+00	3.70257938
4.16364E+00	3.70328212
4.17220E+00	3.70466559
4.18513E+00	3.70675753
4.18534E+00	3.70679074
4.19786E+00	3.70881679
4.21040E+00	3.71084388
4.21080E+00	3.71090823
4.21476E+00	3.71155015
4.22881E+00	3.71390228
4.22949E+00	3.7140158
4.23546E+00	3.71503758
4.24683E+00	3.71698383
4.25935E+00	3.71912483
4.26440E+00	3.71998793
4.28159E+00	3.72292963
4.28250E+00	3.72308437
4.29834E+00	3.72579513
4.30492E+00	3.72692022
4.30574E+00	3.7270611
4.31474E+00	3.72867177
4.31890E+00	3.72941503
4.32664E+00	3.7306925
4.33072E+00	3.73136592
4.34636E+00	3.7339475
4.34768E+00	3.7341647
4.36160E+00	3.73646221
4.36807E+00	3.73752842
4.37653E+00	3.73892469
4.38781E+00	3.74078707
4.39106E+00	3.7413234
4.39868E+00	3.74258026
4.40530E+00	3.7437062
4.40694E+00	3.74398627
4.41916E+00	3.74606533
4.43460E+00	3.74869111
4.44161E+00	3.74988352
4.45906E+00	3.75285253
4.46082E+00	3.75315353
4.46970E+00	3.75466375
4.46970E+00	3.75466375
4.47596E+00	3.75578013
4.47994E+00	3.75648985
4.48596E+00	3.75746164
4.49234E+00	3.75848926
4.50820E+00	3.76104796
4.50981E+00	3.76130737
4.52357E+00	3.76352674
4.53267E+00	3.76499379
4.53846E+00	3.7659281
4.55078E+00	3.76791601
4.55288E+00	3.76825922
4.55434E+00	3.7684984
4.56685E+00	3.77054468
4.57512E+00	3.77189732
4.58039E+00	3.77275876
4.59350E+00	3.77490369
4.59863E+00	3.77574298
4.60168E+00	3.77624174
4.60465E+00	3.77672857
4.60621E+00	3.77699089
4.62447E+00	3.78007132
4.62657E+00	3.78042559
4.64198E+00	3.78302416
4.64533E+00	3.78358804
4.64991E+00	3.78436357
4.65231E+00	3.78476833
4.65231E+00	3.78476833
4.65859E+00	3.78590773
4.65915E+00	3.78601019
4.67179E+00	3.78830998
4.67451E+00	3.78880412
4.68961E+00	3.79155166
4.69231E+00	3.79204281
4.70408E+00	3.7941854
4.71781E+00	3.79668348
4.72055E+00	3.79718301
4.73096E+00	3.7990781
4.73283E+00	3.79941802
4.74647E+00	3.80152625
4.74778E+00	3.80172896
4.76354E+00	3.80416633
4.76901E+00	3.80501174
4.76974E+00	3.80512511
4.77011E+00	3.80518174
4.77362E+00	3.80573233
4.77832E+00	3.80649783
4.79110E+00	3.80857615
4.79218E+00	3.80875191
4.79825E+00	3.80974091
4.80134E+00	3.81025698
4.80517E+00	3.81090923
4.81721E+00	3.8129649
4.82302E+00	3.81395693
4.82323E+00	3.81399404
4.83946E+00	3.81681263
4.84006E+00	3.81691629
4.86005E+00	3.82038942
4.86345E+00	3.82098049
4.88052E+00	3.82394592
4.88520E+00	3.82475846
4.89546E+00	3.82654091
4.90624E+00	3.82841565
4.90852E+00	3.82881173
4.92496E+00	3.83166827
4.92968E+00	3.83248905
4.93872E+00	3.83405934
4.95404E+00	3.83672241
4.95480E+00	3.83685416
4.97045E+00	3.83957608
4.97740E+00	3.84078359
4.98523E+00	3.84214475
5.00000E+00	3.84471377
5.03125E+00	3.85271185
5.06152E+00	3.86046039
5.09085E+00	3.86796718
5.11526E+00	3.87421526
5.11926E+00	3.8752415
5.16012E+00	3.88571767
5.19928E+00	3.89576052
5.21829E+00	3.90063637
5.23318E+00	3.90455745
5.23642E+00	3.9054228
5.26401E+00	3.91278246
5.27202E+00	3.91492196
5.30579E+00	3.92394289
5.33816E+00	3.93259078
5.36886E+00	3.94079379
5.39184E+00	3.94693299
5.39829E+00	3.9486599
5.40361E+00	3.95008329
5.41517E+00	3.95324564
5.43590E+00	3.95846233
5.47115E+00	3.96733582
5.48503E+00	3.97082967
5.50421E+00	3.97566974
5.53519E+00	3.98349332
5.53784E+00	3.98416138
5.54691E+00	3.98645351
5.55580E+00	3.98871104
5.56424E+00	3.99086356
5.60466E+00	4.0011689
5.60948E+00	4.00239798
5.64095E+00	4.01059082
5.64993E+00	4.01292963
5.66367E+00	4.0165111
5.67425E+00	4.01927618
5.69461E+00	4.02459797
5.70466E+00	4.02722566
5.71369E+00	4.02959692
5.73278E+00	4.03460528
5.74594E+00	4.03805935
5.74948E+00	4.03899166
5.76618E+00	4.04338922
5.77363E+00	4.04535052
5.77710E+00	4.0462676
5.78080E+00	4.0472527
5.79541E+00	4.05114768
5.80145E+00	4.05275857
5.81354E+00	4.0560045
5.82098E+00	4.05781852
5.82233E+00	4.05814752
5.83217E+00	4.06054749
5.84336E+00	4.06327776
5.85046E+00	4.06501134
5.86294E+00	4.06806653
5.88252E+00	4.07286291
5.88573E+00	4.07364834
5.89721E+00	4.07646329
5.92290E+00	4.08276744
5.95044E+00	4.0895248
5.96145E+00	4.09222793
6.00000E+00	4.10169352
6.05505E+00	4.11511386
6.11319E+00	4.12927371
6.11411E+00	4.12949849
6.11673E+00	4.13013796
6.16861E+00	4.14279246
6.16948E+00	4.1430035
6.22057E+00	4.15547198
6.23574E+00	4.15917278
6.24572E+00	4.16163953
6.26679E+00	4.16685226
6.26929E+00	4.16746984
6.31496E+00	4.17877781
6.31567E+00	4.17895432
6.35777E+00	4.1893835
6.37849E+00	4.19451573
6.39521E+00	4.19866019
6.41733E+00	4.20414732
6.41860E+00	4.2044619
6.43613E+00	4.20884059
6.47082E+00	4.21751054
6.48855E+00	4.22194174
6.50661E+00	4.22647344
6.51990E+00	4.2298077
6.54133E+00	4.23518641
6.56829E+00	4.24196019
6.57804E+00	4.24441051
6.61280E+00	4.25314913
6.62225E+00	4.25553909
6.63078E+00	4.25769672
6.66677E+00	4.26680166
6.67693E+00	4.26937938
6.69151E+00	4.27307661
6.69550E+00	4.27409131
6.73616E+00	4.28442154
6.74856E+00	4.28757222
6.76381E+00	4.29147057
6.76914E+00	4.29283509
6.80270E+00	4.30142165
6.82286E+00	4.30658295
6.82686E+00	4.30760783
6.83135E+00	4.30876057
6.88612E+00	4.3228231
6.88637E+00	4.322888
6.88711E+00	4.3230779
6.92696E+00	4.33332146
6.94306E+00	4.33746326
7.00000E+00	4.35211501
7.08381E+00	4.36396687
7.11782E+00	4.36877855
7.12436E+00	4.36970459
7.15984E+00	4.37473584
7.22637E+00	4.38417216
7.22844E+00	4.38446584
7.23762E+00	4.38577026
7.26884E+00	4.39023543
7.31175E+00	4.3963821
7.34435E+00	4.40105286
7.35929E+00	4.40319629
7.39769E+00	4.40870662
7.44249E+00	4.4151421
7.46388E+00	4.41821681
7.49113E+00	4.4221367
7.52829E+00	4.4275149
7.54388E+00	4.42977243
7.54538E+00	4.42999043
7.58678E+00	4.43599968
7.66904E+00	4.44794479
7.69208E+00	4.45130569
7.69766E+00	4.45211666
7.79793E+00	4.46670411
7.80430E+00	4.46763207
7.83277E+00	4.47177947
7.84604E+00	4.47371896
7.87010E+00	4.47724006
7.88812E+00	4.47987995
8.00000E+00	4.49627442
8.12500E+00	4.49899846
8.16360E+00	4.49984662
8.23907E+00	4.5015139
8.27706E+00	4.50236433
8.28223E+00	4.50248047
8.34375E+00	4.50386799
8.41382E+00	4.50546009
8.48528E+00	4.50708868
8.49309E+00	4.50726829
8.56036E+00	4.50883102
8.56934E+00	4.50904015
8.65881E+00	4.5111396
8.67077E+00	4.511421
8.71149E+00	4.51238714
8.72314E+00	4.51266453
8.77915E+00	4.51400819
8.81453E+00	4.51485923
8.83385E+00	4.51532575
8.88889E+00	4.51665843
9.00000E+00	4.51935991
9.24021E+00	4.50085673
9.24021E+00	4.50085661
9.27665E+00	4.49805413
9.40240E+00	4.48841294
9.46528E+00	4.48359235
9.48683E+00	4.48194118
9.49465E+00	4.48134393
9.50300E+00	4.48070599
9.57845E+00	4.47494499
9.59260E+00	4.47386765
9.59754E+00	4.47349086
9.60239E+00	4.47312191
9.60360E+00	4.47302971
9.60871E+00	4.47264021
9.61484E+00	4.47217356
9.62078E+00	4.47172149
9.62653E+00	4.47128355
9.63210E+00	4.4708593
9.63750E+00	4.4704483
9.64273E+00	4.47005015
9.64779E+00	4.46966444
9.65270E+00	4.46929078
9.65390E+00	4.46919914
9.65745E+00	4.4689288
9.66205E+00	4.46857813
9.66333E+00	4.46848091
9.66871E+00	4.46807127
9.67213E+00	4.46781099
9.67217E+00	4.46780757
9.67502E+00	4.4675907
9.68107E+00	4.46713025
9.68435E+00	4.46688115
9.68681E+00	4.46669353
9.69231E+00	4.46627491
9.69552E+00	4.46603112
9.69753E+00	4.46587787
9.70253E+00	4.46549729
9.70555E+00	4.46526777
9.70893E+00	4.46501093
9.71476E+00	4.46456736
9.71492E+00	4.46455497
9.72054E+00	4.4641275
9.72580E+00	4.46372675
9.72601E+00	4.46371089
9.73074E+00	4.46335105
9.73586E+00	4.46296147
9.73754E+00	4.46283373
9.74378E+00	4.46235906
9.74448E+00	4.46230573
9.74938E+00	4.4619328
9.75452E+00	4.46154168
9.75554E+00	4.46146419
9.76080E+00	4.46106341
9.76630E+00	4.46064493
9.76708E+00	4.4605856
9.77111E+00	4.46027875
9.77651E+00	4.45986809
9.77717E+00	4.45981818
9.78223E+00	4.45943269
9.78661E+00	4.45909932
9.78788E+00	4.45900341
9.79392E+00	4.45854345
9.79936E+00	4.4581295
9.80480E+00	4.45771554
9.81700E+00	4.45678533
9.82844E+00	4.45591326
9.83916E+00	4.4550957
9.84921E+00	4.45432923
9.85392E+00	4.45396994
9.86305E+00	4.45327384
9.86747E+00	4.45293701
9.87576E+00	4.45230546
9.87964E+00	4.45200942
9.88716E+00	4.45143584
9.88949E+00	4.45125801
9.89080E+00	4.45115836
9.89763E+00	4.45063827
9.90445E+00	4.45011817
9.91042E+00	4.44966309
9.91639E+00	4.449208
9.92162E+00	4.4488098
9.93142E+00	4.44806318
9.93570E+00	4.44773654
9.94399E+00	4.44710502
9.94749E+00	4.44683826
9.95799E+00	4.44603797
9.96062E+00	4.4458379
9.97243E+00	4.44493758
9.97416E+00	4.44480628
9.98228E+00	4.44418731
9.98339E+00	4.44410291
1.00000E+01	4.44283684
1.00077E+01	4.44158481
1.00134E+01	4.44064579
1.00153E+01	4.44033278
1.00220E+01	4.43923725
1.00306E+01	4.43782873
1.00433E+01	4.43575042
1.00495E+01	4.43472751
1.00558E+01	4.43370459
1.00681E+01	4.43169074
1.00802E+01	4.42970834
1.00862E+01	4.42873263
1.00921E+01	4.42775693
1.01039E+01	4.42583599
1.01154E+01	4.42394508
1.01211E+01	4.42301439
1.01268E+01	4.42208371
1.01322E+01	4.42120239
1.01380E+01	4.42025233
1.01490E+01	4.41845039
1.01598E+01	4.41667662
1.01705E+01	4.41493055
1.01707E+01	4.41490285
1.01810E+01	4.41321176
1.01914E+01	4.41151985
1.01917E+01	4.41146615
1.02015E+01	4.40985436
1.02120E+01	4.40813686
1.02165E+01	4.40740796
1.02312E+01	4.4050124
1.02318E+01	4.40491161
1.02454E+01	4.4026789
1.02509E+01	4.40178715
1.02594E+01	4.4003939
1.02694E+01	4.39876032
1.02730E+01	4.39816808
1.02863E+01	4.39598851
1.02873E+01	4.39582808
1.02993E+01	4.39386539
1.03047E+01	4.39298748
1.03120E+01	4.39178641
1.03215E+01	4.39023565
1.03244E+01	4.38976128
1.03330E+01	4.38834991
1.03365E+01	4.38777831
1.03378E+01	4.38756991
1.03483E+01	4.38584686
1.03536E+01	4.38498769
1.03599E+01	4.38395556
1.03712E+01	4.38211325
1.03763E+01	4.38127449
1.03822E+01	4.38030921
1.03861E+01	4.37967724
1.03965E+01	4.37797443
1.03981E+01	4.37771765
1.04105E+01	4.375695
1.04187E+01	4.37434605
1.04240E+01	4.37348682
1.04369E+01	4.37138347
1.04371E+01	4.37134765
1.04385E+01	4.3711143
1.04498E+01	4.36927611
1.04573E+01	4.36805018
1.04620E+01	4.3672693
1.04664E+01	4.36656703
1.04740E+01	4.36541527
1.04753E+01	4.36521853
1.04855E+01	4.36366853
1.04881E+01	4.36327386
1.04923E+01	4.36263535
1.04967E+01	4.36197742
1.05075E+01	4.36033948
1.05087E+01	4.36016077
1.05180E+01	4.35875273
1.05281E+01	4.35721555
1.05296E+01	4.35699843
1.05428E+01	4.35499368
1.05492E+01	4.35403374
1.05568E+01	4.35288632
1.05675E+01	4.35125434
1.05701E+01	4.35086631
1.05828E+01	4.34895039
1.05848E+01	4.34864866
1.05949E+01	4.3471139
1.06009E+01	4.34620583
1.06064E+01	4.34537205
1.06175E+01	4.3437024
1.06203E+01	4.34327533
1.06234E+01	4.34280761
1.06316E+01	4.34156892
1.06435E+01	4.33975627
1.06448E+01	4.33956883
1.06572E+01	4.33769376
1.06688E+01	4.33593587
1.06734E+01	4.3352447
1.06797E+01	4.33428785
1.06908E+01	4.33261393
1.06946E+01	4.33203587
1.06947E+01	4.33201943
1.07085E+01	4.32994017
1.07131E+01	4.32923134
1.07208E+01	4.32807297
1.07294E+01	4.32677739
1.07322E+01	4.32635972
1.07460E+01	4.32426471
1.07498E+01	4.32369076
1.07582E+01	4.32243159
1.07669E+01	4.32110741
1.07688E+01	4.3208276
1.07821E+01	4.31881009
1.07860E+01	4.3182305
1.07933E+01	4.31712152
1.08003E+01	4.31607281
1.08058E+01	4.31524107
1.08191E+01	4.31322632
1.08217E+01	4.3128363
1.08311E+01	4.31141305
1.08431E+01	4.3095998
1.08627E+01	4.306637
1.08713E+01	4.30534077
1.08799E+01	4.30404454
1.08949E+01	4.30177614
1.09015E+01	4.3007837
1.09195E+01	4.29805455
1.09212E+01	4.29780645
1.09396E+01	4.29501527
1.09493E+01	4.29355323
1.09496E+01	4.29351478
1.09604E+01	4.29188118
1.09745E+01	4.28974443
1.09747E+01	4.28972574
1.10000E+01	4.28589827
1.10119E+01	4.28410184
1.10238E+01	4.28230541
1.10268E+01	4.28184226
1.10394E+01	4.27995109
1.10533E+01	4.27784502
1.10550E+01	4.27758977
1.10677E+01	4.27567313
1.10833E+01	4.27330384
1.10951E+01	4.27152688
1.11239E+01	4.26716647
1.11340E+01	4.26565181
1.11516E+01	4.26298679
1.11704E+01	4.26014395
1.11778E+01	4.25902255
1.12030E+01	4.25522263
1.12032E+01	4.25518277
1.12046E+01	4.25498037
1.12070E+01	4.25461741
1.12351E+01	4.25074168
1.12366E+01	4.25053458
1.12506E+01	4.24860824
1.12652E+01	4.24659384
1.12807E+01	4.24446325
1.12935E+01	4.24270825
1.13199E+01	4.23906551
1.13212E+01	4.23889513
1.13447E+01	4.23565046
1.13575E+01	4.23389491
1.13672E+01	4.23256232
1.13781E+01	4.23105802
1.13789E+01	4.2309481
1.13821E+01	4.23051294
1.13860E+01	4.22997355
1.13899E+01	4.22944117
1.13908E+01	4.22930695
1.13937E+01	4.22891431
1.13975E+01	4.2283943
1.14012E+01	4.22787969
1.14049E+01	4.22737176
1.14061E+01	4.22721373
1.14086E+01	4.22686926
1.14103E+01	4.22663368
1.14122E+01	4.22637335
1.14157E+01	4.2258826
1.14192E+01	4.22539822
1.14227E+01	4.22491889
1.14262E+01	4.22444578
1.14296E+01	4.2239776
1.14316E+01	4.22369812
1.14329E+01	4.22351549
1.14363E+01	4.22305819
1.14384E+01	4.22276061
1.14395E+01	4.22260683
1.14428E+01	4.22216016
1.14460E+01	4.2217193
1.14492E+01	4.22128302
1.14523E+01	4.2208524
1.14554E+01	4.22042627
1.14585E+01	4.22000567
1.14635E+01	4.21931486
1.14643E+01	4.2192069
1.14673E+01	4.21879114
1.14674E+01	4.21876997
1.14710E+01	4.21828415
1.14713E+01	4.2182336
1.14752E+01	4.21770566
1.14790E+01	4.21718596
1.14827E+01	4.21667438
1.14863E+01	4.2161708
1.14891E+01	4.21579037
1.14899E+01	4.21567513
1.14935E+01	4.21518736
1.14959E+01	4.21486202
1.14970E+01	4.2147072
1.15004E+01	4.21423455
1.15038E+01	4.21376928
1.15071E+01	4.21331129
1.15104E+01	4.21286046
1.15122E+01	4.21262088
1.15136E+01	4.21241666
1.15168E+01	4.2119798
1.15199E+01	4.21154977
1.15230E+01	4.21112646
1.15235E+01	4.21106153
1.15261E+01	4.21070977
1.15290E+01	4.21029958
1.15320E+01	4.2098958
1.15349E+01	4.20949832
1.15377E+01	4.20910707
1.15419E+01	4.20853237
1.15460E+01	4.2079696
1.15477E+01	4.20773613
1.15497E+01	4.20745773
1.15500E+01	4.20742142
1.15539E+01	4.20688463
1.15577E+01	4.20636175
1.15614E+01	4.20584973
1.15615E+01	4.20583326
1.15650E+01	4.20535161
1.15686E+01	4.20486387
1.15720E+01	4.20438877
1.15754E+01	4.20392353
1.15781E+01	4.20355644
1.15787E+01	4.20347034
1.15820E+01	4.20302658
1.15851E+01	4.20259431
1.15902E+01	4.20189469
1.15915E+01	4.20171338
1.15942E+01	4.20135069
1.15980E+01	4.20082369
1.16017E+01	4.20031316
1.16036E+01	4.20006034
1.16053E+01	4.19981859
1.16088E+01	4.19933946
1.16122E+01	4.19887532
1.16155E+01	4.19842567
1.16187E+01	4.19799008
1.16217E+01	4.1975681
1.16247E+01	4.19715931
1.16276E+01	4.19676329
1.16317E+01	4.19619383
1.16319E+01	4.19616699
1.16347E+01	4.19579178
1.16357E+01	4.19564798
1.16395E+01	4.19513025
1.16431E+01	4.19463398
1.16465E+01	4.19416329
1.16498E+01	4.19371211
1.16529E+01	4.19328418
1.16559E+01	4.19287399
1.16572E+01	4.19270064
1.16597E+01	4.19234984
1.16623E+01	4.19199564
1.16633E+01	4.19185843
1.16641E+01	4.19175445
1.16667E+01	4.19139776
1.16698E+01	4.19096587
1.16728E+01	4.19056098
1.16769E+01	4.18999773
1.16805E+01	4.18949192
1.16860E+01	4.18874404
1.16897E+01	4.18824168
1.16899E+01	4.188212
1.16933E+01	4.18774646
1.16962E+01	4.18733911
1.17000E+01	4.18682674
1.17031E+01	4.18639793
1.17066E+01	4.18592039
1.17092E+01	4.18556223
1.17131E+01	4.18502501
1.17170E+01	4.18448778
1.17258E+01	4.18327187
1.17344E+01	4.18209397
1.17427E+01	4.18095287
1.17508E+01	4.17984743
1.17585E+01	4.17877653
1.17679E+01	4.17749635
1.17697E+01	4.17723659
1.17805E+01	4.1757605
1.17907E+01	4.17436049
1.18004E+01	4.1730185
1.18097E+01	4.17174568
1.18104E+01	4.1716449
1.18186E+01	4.17052562
1.18270E+01	4.16936844
1.18273E+01	4.16931678
1.18350E+01	4.1682593
1.18453E+01	4.16684192
1.18550E+01	4.16551312
1.18578E+01	4.16512887
1.18641E+01	4.16426738
1.18726E+01	4.1630995
1.18805E+01	4.16200463
1.18916E+01	4.16048153
1.19016E+01	4.15911376
1.19067E+01	4.15840951
1.19086E+01	4.15814772
1.19107E+01	4.15785878
1.19215E+01	4.15637213
1.19313E+01	4.15502336
1.19399E+01	4.15384319
1.19400E+01	4.15382824
1.19509E+01	4.15232864
1.19543E+01	4.15186488
1.19571E+01	4.15148532
1.19678E+01	4.15000954
1.19789E+01	4.14848764
1.19800E+01	4.14833088
1.19864E+01	4.14745
1.20000E+01	4.1455823
1.20156E+01	4.14293584
1.20310E+01	4.14033074
1.20461E+01	4.13776636
1.20615E+01	4.13516195
1.20684E+01	4.13399964
1.20902E+01	4.13031125
1.21051E+01	4.12778888
1.21114E+01	4.12671842
1.21202E+01	4.12522776
1.21321E+01	4.1232003
1.21468E+01	4.12072156
1.21524E+01	4.11977335
1.21722E+01	4.11641766
1.21752E+01	4.11591473
1.21864E+01	4.11401864
1.21915E+01	4.11314892
1.22104E+01	4.10994817
1.22243E+01	4.10759372
1.22267E+01	4.10718407
1.22288E+01	4.10683036
1.22468E+01	4.10377741
1.22500E+01	4.10324147
1.22644E+01	4.10080499
1.22728E+01	4.09938567
1.22750E+01	4.09900187
1.22816E+01	4.09789468
1.22983E+01	4.09505981
1.23182E+01	4.09169334
1.23204E+01	4.09133354
1.23255E+01	4.09047182
1.23370E+01	4.08851156
1.23438E+01	4.08737491
1.23465E+01	4.08690531
1.23608E+01	4.08448781
1.23670E+01	4.08345619
1.23834E+01	4.08067973
1.23867E+01	4.08011496
1.24008E+01	4.07774092
1.24059E+01	4.07687823
1.24245E+01	4.07374274
1.24382E+01	4.07141607
1.24400E+01	4.07112021
1.24424E+01	4.07070532
1.24599E+01	4.06776292
1.24715E+01	4.06580316
1.24768E+01	4.06497913
1.24898E+01	4.06293912
1.24900E+01	4.06290929
1.24919E+01	4.06260798
1.24931E+01	4.06242453
1.25089E+01	4.05995067
1.25243E+01	4.0575542
1.25371E+01	4.05554982
1.25464E+01	4.05410826
1.25535E+01	4.05300007
1.25675E+01	4.05080535
1.25781E+01	4.04914772
1.25796E+01	4.04891511
1.25876E+01	4.04767393
1.26068E+01	4.04467363
1.26093E+01	4.04428815
1.26186E+01	4.04283241
1.26250E+01	4.04182815
1.26264E+01	4.0416189
1.26425E+01	4.03910084
1.26581E+01	4.03666911
1.26591E+01	4.03651423
1.26663E+01	4.03539559
1.26750E+01	4.03403503
1.26953E+01	4.03086707
1.27080E+01	4.02888968
1.27144E+01	4.02789737
1.27188E+01	4.02721225
1.27208E+01	4.02689445
1.27322E+01	4.02511797
1.27445E+01	4.02320657
1.27489E+01	4.02251388
1.27557E+01	4.02146419
1.27646E+01	4.02007282
1.27865E+01	4.01667738
1.27904E+01	4.01606455
1.28061E+01	4.01362868
1.28168E+01	4.01196434
1.28288E+01	4.01008884
1.28350E+01	4.00912188
1.28372E+01	4.00878684
1.28557E+01	4.00611313
1.28594E+01	4.00557648
1.28716E+01	4.00380418
1.28737E+01	4.00350228
1.28798E+01	4.00262769
1.28895E+01	4.00121853
1.29094E+01	3.99834656
1.29175E+01	3.99717238
1.29227E+01	3.99641644
1.29260E+01	3.99594341
1.29445E+01	3.99326784
1.29566E+01	3.9915152
1.29584E+01	3.99126161
1.29587E+01	3.99120709
1.29792E+01	3.98825316
1.30000E+01	3.98524571
1.30313E+01	3.98034489
1.30464E+01	3.97797144
1.30615E+01	3.97559803
1.30762E+01	3.97329918
1.30909E+01	3.97100042
1.31051E+01	3.96877351
1.31193E+01	3.96654709
1.31330E+01	3.96439032
1.31468E+01	3.96223359
1.31601E+01	3.96014473
1.31864E+01	3.95603245
1.31993E+01	3.95400943
1.32099E+01	3.95234148
1.32243E+01	3.95009008
1.32256E+01	3.94988718
1.32493E+01	3.94638166
1.32493E+01	3.94638164
1.32500E+01	3.94628163
1.32603E+01	3.94476373
1.32948E+01	3.9396737
1.32962E+01	3.93945729
1.32962E+01	3.93945728
1.33275E+01	3.93484765
1.33402E+01	3.93296893
1.33402E+01	3.93296892
1.33588E+01	3.93022317
1.33815E+01	3.92688889
1.33815E+01	3.92688887
1.33989E+01	3.92431582
1.34201E+01	3.92119138
1.34365E+01	3.91878033
1.34717E+01	3.91359318
1.34734E+01	3.91335065
1.34739E+01	3.91326998
1.34868E+01	3.91136477
1.34907E+01	3.91079134
1.34971E+01	3.90985127
1.35000E+01	3.90945617
1.35047E+01	3.90880865
1.35222E+01	3.9064141
1.35357E+01	3.90456632
1.35661E+01	3.90040568
1.35665E+01	3.90034385
1.35781E+01	3.89875274
1.35787E+01	3.89866867
1.36063E+01	3.89490125
1.36174E+01	3.89338256
1.36190E+01	3.89316541
1.36555E+01	3.88817929
1.36666E+01	3.88666182
1.36746E+01	3.88557474
1.36986E+01	3.88230276
1.37083E+01	3.88097647
1.37090E+01	3.88088157
1.37153E+01	3.88002636
1.37363E+01	3.87716624
1.37500E+01	3.87529284
1.37509E+01	3.87517628
1.37618E+01	3.87368936
1.37820E+01	3.87093623
1.37836E+01	3.87071237
1.37916E+01	3.86963654
1.38212E+01	3.86560878
1.38233E+01	3.8653182
1.38437E+01	3.86255271
1.38537E+01	3.86118532
1.38540E+01	3.86115491
1.38675E+01	3.85931956
1.38750E+01	3.85829951
1.38808E+01	3.85751275
1.38864E+01	3.85675861
1.38905E+01	3.85620085
1.38916E+01	3.85604349
1.38967E+01	3.85535856
1.38974E+01	3.85526037
1.39015E+01	3.85470901
1.39061E+01	3.85408642
1.39119E+01	3.85329079
1.39148E+01	3.85290168
1.39174E+01	3.85254491
1.39179E+01	3.85248966
1.39226E+01	3.85184643
1.39274E+01	3.85119165
1.39320E+01	3.85057781
1.39340E+01	3.85029741
1.39383E+01	3.84972398
1.39439E+01	3.8489573
1.39491E+01	3.84825383
1.39553E+01	3.84742048
1.39574E+01	3.84713636
1.39589E+01	3.84693064
1.39609E+01	3.84666486
1.39658E+01	3.84600436
1.39721E+01	3.84515671
1.39755E+01	3.84468473
1.39817E+01	3.84385877
1.39880E+01	3.84300698
1.39923E+01	3.84242622
1.40000E+01	3.84138088
1.40117E+01	3.83990921
1.40231E+01	3.83846813
1.40342E+01	3.83706437
1.40451E+01	3.83568978
1.40459E+01	3.8355867
1.40593E+01	3.83389524
1.40625E+01	3.83349105
1.40731E+01	3.83215867
1.40864E+01	3.83047693
1.40880E+01	3.83027511
1.40993E+01	3.82884784
1.41119E+01	3.82726966
1.41172E+01	3.82659781
1.41240E+01	3.82574196
1.41357E+01	3.82426288
1.41395E+01	3.82378783
1.41471E+01	3.82283009
1.41581E+01	3.82144211
1.41650E+01	3.82057476
1.41688E+01	3.82009824
1.41792E+01	3.81879765
1.41846E+01	3.81811999
1.41941E+01	3.81692751
1.42083E+01	3.81513494
1.42219E+01	3.81343476
1.42252E+01	3.8130112
1.42348E+01	3.8118071
1.42413E+01	3.81100111
1.42471E+01	3.81026408
1.42589E+01	3.80878508
1.42701E+01	3.8073823
1.42756E+01	3.80669214
1.42808E+01	3.80603883
1.42887E+01	3.80505362
1.42945E+01	3.80432361
1.43074E+01	3.80271569
1.43194E+01	3.80120826
1.43307E+01	3.79979503
1.43317E+01	3.79966819
1.43360E+01	3.7991314
1.43413E+01	3.79847224
1.43415E+01	3.79844157
1.43560E+01	3.79663258
1.43692E+01	3.79498054
1.43738E+01	3.79441003
1.43888E+01	3.79254172
1.43960E+01	3.79163904
1.44027E+01	3.79080759
1.44148E+01	3.78929032
1.44255E+01	3.7879627
1.44331E+01	3.78700703
1.44369E+01	3.78653963
1.44389E+01	3.78629354
1.44501E+01	3.78489979
1.44626E+01	3.78334765
1.44759E+01	3.78168466
1.44880E+01	3.78018797
1.44914E+01	3.77976366
1.45000E+01	3.77872865
1.45156E+01	3.776767
1.45308E+01	3.77486664
1.45454E+01	3.77302567
1.45596E+01	3.77124223
1.45625E+01	3.77088204
1.45697E+01	3.76998047
1.45734E+01	3.76951756
1.45867E+01	3.76784757
1.45996E+01	3.76622976
1.46122E+01	3.76466251
1.46172E+01	3.76403152
1.46301E+01	3.7624096
1.46411E+01	3.76103586
1.46474E+01	3.7602519
1.46637E+01	3.75820796
1.46650E+01	3.75804609
1.46794E+01	3.75624899
1.46860E+01	3.75543039
1.46943E+01	3.75439143
1.47069E+01	3.75281574
1.47085E+01	3.75261159
1.47221E+01	3.75092656
1.47252E+01	3.75053263
1.47350E+01	3.74931155
1.47435E+01	3.74824986
1.47516E+01	3.74724819
1.47671E+01	3.74531421
1.47756E+01	3.74425669
1.47802E+01	3.74368633
1.47817E+01	3.74350166
1.47833E+01	3.74330102
1.47953E+01	3.74180619
1.48077E+01	3.74027231
1.48081E+01	3.74021671
1.48259E+01	3.7380066
1.48317E+01	3.73728653
1.48419E+01	3.73602209
1.48557E+01	3.73430121
1.48565E+01	3.73420158
1.48738E+01	3.7320684
1.48739E+01	3.73205061
1.48764E+01	3.7317495
1.48897E+01	3.73010036
1.49035E+01	3.72839401
1.49212E+01	3.72620423
1.49310E+01	3.72498491
1.49369E+01	3.72425897
1.49382E+01	3.72409965
1.49483E+01	3.72285554
1.49660E+01	3.7206628
1.49782E+01	3.71916776
1.50000E+01	3.7164767
1.50233E+01	3.71401524
1.50461E+01	3.71160494
1.50625E+01	3.70987847
1.50684E+01	3.70925718
1.50902E+01	3.70695854
1.50918E+01	3.70678613
1.51114E+01	3.70472538
1.51211E+01	3.70370268
1.51321E+01	3.70253938
1.51524E+01	3.70041023
1.51760E+01	3.69792255
1.51851E+01	3.69696738
1.52018E+01	3.69522175
1.52106E+01	3.69429668
1.52353E+01	3.69170993
1.52517E+01	3.68999043
1.52592E+01	3.68920453
1.52758E+01	3.68746082
1.52790E+01	3.68712365
1.52823E+01	3.68677968
1.53047E+01	3.6844367
1.53211E+01	3.68273142
1.53265E+01	3.68216738
1.53365E+01	3.68112076
1.53423E+01	3.68051664
1.53475E+01	3.67997037
1.53679E+01	3.67784246
1.53691E+01	3.67771334
1.53877E+01	3.67578729
1.54033E+01	3.67416241
1.54059E+01	3.67388662
1.54068E+01	3.67379694
1.54253E+01	3.67187084
1.54520E+01	3.66910113
1.54775E+01	3.66644623
1.54779E+01	3.66641215
1.54802E+01	3.66617112
1.54848E+01	3.66569277
1.54919E+01	3.66495498
1.55018E+01	3.663955
1.55250E+01	3.66159529
1.55431E+01	3.65975386
1.55470E+01	3.65935736
1.55492E+01	3.65913812
1.55682E+01	3.65721928
1.55702E+01	3.65700878
1.55755E+01	3.65647772
1.55882E+01	3.65519349
1.56074E+01	3.65325247
1.56269E+01	3.65128125
1.56319E+01	3.65077222
1.56518E+01	3.64876795
1.56549E+01	3.64844814
1.56619E+01	3.64774519
1.56765E+01	3.64627797
1.56939E+01	3.6445263
1.56967E+01	3.6442466
1.57156E+01	3.64234947
1.57157E+01	3.64234286
1.57420E+01	3.6396972
1.57500E+01	3.63889423
1.57657E+01	3.63732201
1.57781E+01	3.6360787
1.57867E+01	3.63522131
1.58007E+01	3.63382211
1.58125E+01	3.63264519
1.58256E+01	3.63133842
1.58474E+01	3.62916572
1.58554E+01	3.62836759
1.58574E+01	3.62817625
1.58629E+01	3.62762895
1.58665E+01	3.62727017
1.58795E+01	3.6259857
1.58905E+01	3.62489711
1.59106E+01	3.6229118
1.59329E+01	3.62070092
1.59569E+01	3.61833216
1.59784E+01	3.6162003
1.60000E+01	3.61406849
1.60313E+01	3.61038437
1.60615E+01	3.60681541
1.60918E+01	3.60324649
1.61051E+01	3.60168391
1.61250E+01	3.59933366
1.61468E+01	3.59676906
1.61760E+01	3.5933268
1.61797E+01	3.59289589
1.61864E+01	3.59211266
1.62243E+01	3.58766153
1.62344E+01	3.58647951
1.62603E+01	3.58344344
1.62790E+01	3.58124742
1.62948E+01	3.57940247
1.63275E+01	3.57557078
1.63301E+01	3.57526725
1.63588E+01	3.57190822
1.63691E+01	3.57070543
1.63719E+01	3.57037821
1.63989E+01	3.56723506
1.64365E+01	3.56285655
1.64717E+01	3.5587518
1.64781E+01	3.55800204
1.64848E+01	3.55722536
1.64871E+01	3.55695863
1.64976E+01	3.55574102
1.65047E+01	3.55491072
1.65357E+01	3.55132302
1.65492E+01	3.54975562
1.65787E+01	3.54633407
1.66153E+01	3.54209712
1.66174E+01	3.54185523
1.66619E+01	3.5367104
1.66746E+01	3.53524459
1.66770E+01	3.5349655
1.67153E+01	3.53056171
1.67476E+01	3.52684542
1.67509E+01	3.52646587
1.67781E+01	3.52333246
1.67820E+01	3.52288738
1.68212E+01	3.5183893
1.68377E+01	3.51648992
1.68385E+01	3.51639955
1.68461E+01	3.51553285
1.68540E+01	3.51464624
1.68574E+01	3.51426192
1.68905E+01	3.51053274
1.69296E+01	3.50612604
1.69648E+01	3.50216027
1.70000E+01	3.49819477
1.70611E+01	3.4914113
1.71185E+01	3.48505213
1.71223E+01	3.48462822
1.71722E+01	3.47909522
1.71758E+01	3.47869815
1.72226E+01	3.47351869
1.72342E+01	3.47223828
1.72446E+01	3.47108525
1.72698E+01	3.46829923
1.72761E+01	3.4676058
1.73229E+01	3.46244431
1.73349E+01	3.46112985
1.73945E+01	3.45456072
1.74048E+01	3.45342597
1.74280E+01	3.45087824
1.74481E+01	3.44867364
1.74868E+01	3.44443794
1.74973E+01	3.4432862
1.75039E+01	3.44256747
1.75482E+01	3.43771578
1.75574E+01	3.43670922
1.76100E+01	3.43096038
1.76623E+01	3.4252477
1.76775E+01	3.42358672
1.76960E+01	3.42156874
1.77032E+01	3.42079497
1.77316E+01	3.41770982
1.77502E+01	3.41569058
1.77768E+01	3.41280226
1.77969E+01	3.41062848
1.78203E+01	3.4080875
1.78272E+01	3.40734339
1.78812E+01	3.40150838
1.79783E+01	3.39100763
1.80000E+01	3.38862314
1.80625E+01	3.38033685
1.81486E+01	3.36892809
1.81797E+01	3.36480198
1.82275E+01	3.35846637
1.82500E+01	3.35548994
1.83241E+01	3.34569378
1.83301E+01	3.3449012
1.84086E+01	3.33453219
1.84375E+01	3.33071151
1.84804E+01	3.32505941
1.84825E+01	3.32478553
1.84976E+01	3.32280303
1.85078E+01	3.32145436
1.85755E+01	3.31256817
1.86533E+01	3.30235094
1.86770E+01	3.29924203
1.87400E+01	3.2909837
1.87891E+01	3.28455055
1.88328E+01	3.2788188
1.88385E+01	3.27807912
1.89164E+01	3.26789202
1.89737E+01	3.26040985
1.89893E+01	3.25837921
1.90000E+01	3.25698726
1.90392E+01	3.25251943
1.90783E+01	3.24803732
1.91920E+01	3.23403084
1.92366E+01	3.22855112
1.92872E+01	3.22231732
1.93443E+01	3.21530679
1.93933E+01	3.20928219
1.93948E+01	3.20909223
1.94739E+01	3.19937661
1.95068E+01	3.19534024
1.96091E+01	3.18280792
1.96694E+01	3.17541456
1.97113E+01	3.17027877
1.98557E+01	3.1525215
2.00000E+01	3.13476969
