E(MeV)	Mg-nat
1.00000E-11	30.1066
1.10240E-11	28.6821
1.21504E-11	27.3284
1.33946E-11	26.037
1.47633E-11	24.8097
1.62750E-11	23.6389
1.79381E-11	22.5265
1.97749E-11	21.4653
2.17956E-11	20.457
2.40274E-11	19.4953
2.64826E-11	18.5818
2.91943E-11	17.7105
3.21775E-11	16.8828
3.54723E-11	16.0937
3.90970E-11	15.3442
4.31005E-11	14.6296
4.75046E-11	13.9511
5.23690E-11	13.3043
5.77202E-11	12.6903
6.36306E-11	12.1052
7.01326E-11	11.55
7.73139E-11	11.021
8.52142E-11	10.5191
9.39398E-11	10.0412
1.03539E-10	9.58795
1.14141E-10	9.15652
1.25804E-10	8.74758
1.38686E-10	8.35853
1.52858E-10	7.98996
1.68510E-10	7.63955
1.85729E-10	7.30781
2.04747E-10	6.99265
2.25669E-10	6.69453
2.48777E-10	6.41155
2.74198E-10	6.14415
3.02275E-10	5.89058
3.33162E-10	5.65314
3.37862E-10	5.61845
3.67277E-10	5.42759
3.77640E-10	5.3631
4.04807E-10	5.21442
4.22101E-10	5.12373
4.46258E-10	5.01229
4.71797E-10	4.89954
4.91858E-10	4.82159
5.27343E-10	4.68979
5.42223E-10	4.64114
5.89429E-10	4.49376
5.97629E-10	4.47122
6.58824E-10	4.31078
7.26145E-10	4.1627
7.36390E-10	4.14114
8.00501E-10	4.02294
8.23088E-10	3.98316
8.82299E-10	3.89247
9.32792E-10	3.81874
9.72643E-10	3.76848
1.05732E-09	3.6669
1.07203E-09	3.65163
1.18180E-09	3.54354
1.19825E-09	3.5281
1.30256E-09	3.44383
1.35821E-09	3.40109
1.43594E-09	3.35001
1.56096E-09	3.27214
1.58267E-09	3.26062
1.74474E-09	3.17943
1.79397E-09	3.15603
1.92302E-09	3.10399
2.06175E-09	3.05111
2.11993E-09	3.03234
2.33655E-09	2.9666
2.40248E-09	2.94768
2.57581E-09	2.90633
2.83901E-09	2.8473
3.12972E-09	2.79649
3.35486E-09	2.75954
3.44953E-09	2.74666
3.80275E-09	2.70183
4.02038E-09	2.67594
4.19133E-09	2.65935
4.62050E-09	2.62064
4.95289E-09	2.59264
5.09264E-09	2.58314
5.61412E-09	2.55034
6.18779E-09	2.5168
6.82140E-09	2.48938
7.51843E-09	2.46153
7.94871E-09	2.44557
8.28830E-09	2.43559
9.13523E-09	2.41281
1.00706E-08	2.38966
1.04989E-08	2.37985
1.10997E-08	2.36914
1.22363E-08	2.35071
1.34866E-08	2.33218
1.46608E-08	2.31618
1.48676E-08	2.31401
1.63868E-08	2.2996
1.80648E-08	2.28519
1.99107E-08	2.27076
2.16442E-08	2.25837
2.19495E-08	2.25656
2.41924E-08	2.24453
2.50875E-08	2.24004
2.53000E-08	2.23905
2.78906E-08	2.2292
3.07406E-08	2.2195
3.38884E-08	2.20987
3.73512E-08	2.20031
4.11758E-08	2.19076
4.35323E-08	2.18544
4.53833E-08	2.18237
5.00305E-08	2.17563
5.51428E-08	2.16909
6.07892E-08	2.1627
6.70009E-08	2.15644
7.38616E-08	2.15023
8.14090E-08	2.14404
8.97450E-08	2.13784
9.09936E-08	2.137
9.89155E-08	2.13324
1.09044E-07	2.1291
1.20187E-07	2.12515
1.32493E-07	2.12132
1.48092E-07	2.11704
1.65528E-07	2.11278
1.82442E-07	2.1091
1.98326E-07	2.10604
2.15592E-07	2.10307
2.37668E-07	2.0997
2.61954E-07	2.09639
2.88777E-07	2.09309
2.96925E-07	2.09219
3.22776E-07	2.09017
3.55758E-07	2.08793
3.86730E-07	2.08611
4.20399E-07	2.08441
4.63447E-07	2.08255
5.10804E-07	2.08078
5.63108E-07	2.07909
6.29405E-07	2.07722
6.93720E-07	2.07562
7.64755E-07	2.07409
8.42900E-07	2.07264
9.29211E-07	2.07126
1.02416E-06	2.06994
1.12903E-06	2.06864
1.24440E-06	2.0674
1.37182E-06	2.06619
1.49125E-06	2.06521
1.64364E-06	2.06414
1.83715E-06	2.06297
2.02527E-06	2.06198
2.23222E-06	2.06099
2.49502E-06	2.0599
2.75050E-06	2.05896
3.07433E-06	2.0579
3.34198E-06	2.0571
3.63294E-06	2.05629
3.94922E-06	2.0555
4.35277E-06	2.05464
4.73172E-06	2.0539
4.86524E-06	2.05466
5.36342E-06	2.05758
5.91148E-06	2.06087
6.42613E-06	2.06402
6.98560E-06	2.06434
7.59376E-06	2.06473
8.60755E-06	2.06546
9.35693E-06	2.06605
1.00300E-05	2.06662
1.12109E-05	2.06771
1.25308E-05	2.069
1.36218E-05	2.07012
1.50166E-05	2.07158
1.65510E-05	2.07321
1.79920E-05	2.07478
1.98343E-05	2.07683
2.21695E-05	2.07951
2.31121E-05	2.08061
2.47795E-05	2.08092
2.69369E-05	2.08135
2.92820E-05	2.08184
3.27295E-05	2.0826
3.60739E-05	2.08337
3.97678E-05	2.08425
4.44497E-05	2.08542
4.96830E-05	2.08677
5.40084E-05	2.0879
5.87104E-05	2.08916
6.56226E-05	2.09102
7.23281E-05	2.09285
7.86250E-05	2.09459
8.42974E-05	2.09617
8.91217E-05	2.09752
9.03616E-05	2.09749
9.82285E-05	2.09729
1.06780E-04	2.09708
1.16077E-04	2.09687
1.27963E-04	2.09661
1.39103E-04	2.09638
1.51213E-04	2.09615
1.66665E-04	2.09588
1.86287E-04	2.09554
2.05362E-04	2.09523
2.23241E-04	2.09495
2.49193E-04	2.09455
2.70888E-04	2.09423
2.95552E-04	2.09387
3.25815E-04	2.09344
3.59108E-04	2.09298
3.95186E-04	2.09249
4.42673E-04	2.09186
4.98386E-04	2.09113
5.35204E-04	2.09066
5.89893E-04	2.08997
6.44742E-04	2.08928
7.28320E-04	2.08824
8.57773E-04	2.08664
9.19723E-04	2.08588
9.92943E-04	2.08499
1.00000E-03	2.0849
1.58284E-03	2.07834
2.00500E-03	2.07359
2.60000E-03	2.06726
3.18650E-03	2.06043
3.62030E-03	2.05487
3.67138E-03	2.05426
4.13030E-03	2.04886
4.41165E-03	2.04561
4.54030E-03	2.06306
4.84580E-03	2.10468
4.85940E-03	2.10652
4.87690E-03	2.11243
4.88467E-03	2.11505
4.90120E-03	2.12063
4.90314E-03	2.1213
4.90411E-03	2.12164
4.90508E-03	2.12199
4.90606E-03	2.12235
4.90679E-03	2.12263
4.90751E-03	2.12293
4.90836E-03	2.12328
4.90907E-03	2.1236
4.90978E-03	2.12392
4.91085E-03	2.12443
4.91192E-03	2.12495
4.91299E-03	2.12549
4.91370E-03	2.12587
4.91441E-03	2.12626
4.91513E-03	2.12667
4.91566E-03	2.12699
4.91619E-03	2.12733
4.91673E-03	2.1277
4.91726E-03	2.1281
4.91780E-03	2.12853
4.91833E-03	2.12899
4.91887E-03	2.12949
4.91940E-03	2.13003
4.91997E-03	2.13022
4.92054E-03	2.13046
4.92112E-03	2.13073
4.92188E-03	2.13114
4.92398E-03	2.13234
4.92474E-03	2.13273
4.92550E-03	2.13307
4.92616E-03	2.1333
4.92683E-03	2.13347
4.92749E-03	2.13356
4.92795E-03	2.13357
4.92815E-03	2.13385
4.92881E-03	2.1347
4.92948E-03	2.13545
4.92981E-03	2.13579
4.93047E-03	2.13639
4.93104E-03	2.13683
4.93175E-03	2.13729
4.93246E-03	2.13764
4.93317E-03	2.13791
4.93365E-03	2.13806
4.93460E-03	2.13828
4.93650E-03	2.13865
4.93745E-03	2.13889
4.93816E-03	2.13911
4.93880E-03	2.13935
4.93940E-03	2.13961
4.94000E-03	2.1399
4.94060E-03	2.14023
4.94120E-03	2.14058
4.94200E-03	2.14109
4.94280E-03	2.14163
4.94302E-03	2.14178
4.94400E-03	2.14536
4.94520E-03	2.1498
4.94640E-03	2.15426
4.94710E-03	2.15688
4.94720E-03	2.15768
4.94800E-03	2.16408
4.94860E-03	2.1689
4.94920E-03	2.17374
4.94980E-03	2.17861
4.95040E-03	2.1835
4.95100E-03	2.18842
4.95148E-03	2.19242
4.95205E-03	2.19713
4.95262E-03	2.20188
4.95319E-03	2.20664
4.95376E-03	2.21143
4.95433E-03	2.21624
4.95518E-03	2.22348
4.95525E-03	2.22407
4.95603E-03	2.23219
4.95689E-03	2.24106
4.95746E-03	2.247
4.95802E-03	2.25297
4.95831E-03	2.25594
4.95845E-03	2.25819
4.95888E-03	2.2648
4.95930E-03	2.27145
4.95973E-03	2.27815
4.95983E-03	2.27979
4.96016E-03	2.28768
4.96044E-03	2.29466
4.96073E-03	2.30167
4.96101E-03	2.30872
4.96130E-03	2.31581
4.96136E-03	2.3175
4.96158E-03	2.32547
4.96186E-03	2.33595
4.96215E-03	2.34649
4.96238E-03	2.35516
4.96243E-03	2.35775
4.96272E-03	2.37206
4.96300E-03	2.38644
4.96329E-03	2.4009
4.96340E-03	2.40672
4.96357E-03	2.41822
4.96385E-03	2.43751
4.96414E-03	2.45688
4.96442E-03	2.47634
4.96444E-03	2.47731
4.96471E-03	2.50068
4.96499E-03	2.52538
4.96522E-03	2.54488
4.96528E-03	2.55129
4.96556E-03	2.58133
4.96585E-03	2.61151
4.96599E-03	2.62735
4.96613E-03	2.64465
4.96641E-03	2.681
4.96670E-03	2.71753
4.96677E-03	2.72701
4.96698E-03	2.75909
4.96727E-03	2.80255
4.96755E-03	2.84599
4.96755E-03	2.84627
4.96784E-03	2.89714
4.96812E-03	2.94826
4.96833E-03	2.98582
4.96840E-03	3.00151
4.96869E-03	3.0601
4.96897E-03	3.11898
4.96911E-03	3.14662
4.96926E-03	3.18098
4.96954E-03	3.24611
4.96962E-03	3.26472
4.96983E-03	3.31549
4.97012E-03	3.3866
4.97041E-03	3.45806
4.97066E-03	3.52207
4.97069E-03	3.53017
4.97113E-03	3.64262
4.97156E-03	3.75585
4.97199E-03	3.86986
4.97229E-03	3.94968
4.97242E-03	3.98215
4.97299E-03	4.12547
4.97317E-03	4.16939
4.97357E-03	4.25918
4.97376E-03	4.30156
4.97434E-03	4.41715
4.97443E-03	4.43127
4.97493E-03	4.51226
4.97552E-03	4.58367
4.97572E-03	4.59965
4.97611E-03	4.62852
4.97640E-03	4.64064
4.97654E-03	4.64166
4.97696E-03	4.64376
4.97701E-03	4.64182
4.97749E-03	4.62217
4.97752E-03	4.6205
4.97796E-03	4.58298
4.97809E-03	4.57179
4.97844E-03	4.52746
4.97865E-03	4.49965
4.97891E-03	4.45583
4.97939E-03	4.37436
4.97940E-03	4.37215
4.97986E-03	4.27662
4.98015E-03	4.21582
4.98031E-03	4.17865
4.98074E-03	4.07944
4.98116E-03	3.97831
4.98159E-03	3.87531
4.98201E-03	3.77056
4.98240E-03	3.67358
4.98244E-03	3.66497
4.98286E-03	3.56595
4.98327E-03	3.4698
4.98350E-03	3.42088
4.98414E-03	3.28381
4.98479E-03	3.15779
4.98499E-03	3.12351
4.98544E-03	3.04464
4.98631E-03	2.91289
4.98669E-03	2.86403
4.98718E-03	2.80132
4.98733E-03	2.7846
4.98791E-03	2.72274
4.98805E-03	2.70784
4.98834E-03	2.68135
4.98877E-03	2.64273
4.98892E-03	2.62982
4.98920E-03	2.60865
4.98961E-03	2.57865
4.99002E-03	2.54936
4.99022E-03	2.53587
4.99030E-03	2.53116
4.99058E-03	2.51552
4.99085E-03	2.50019
4.99112E-03	2.48516
4.99140E-03	2.47043
4.99169E-03	2.45519
4.99196E-03	2.44155
4.99198E-03	2.44046
4.99227E-03	2.42819
4.99256E-03	2.41622
4.99285E-03	2.40453
4.99314E-03	2.3931
4.99343E-03	2.38194
4.99373E-03	2.37102
4.99402E-03	2.36032
4.99431E-03	2.34984
4.99456E-03	2.34077
4.99458E-03	2.3402
4.99483E-03	2.33327
4.99508E-03	2.32646
4.99533E-03	2.31978
4.99558E-03	2.31321
4.99583E-03	2.30675
4.99607E-03	2.30038
4.99632E-03	2.2941
4.99657E-03	2.28791
4.99682E-03	2.28179
4.99707E-03	2.27574
4.99717E-03	2.27329
4.99732E-03	2.27063
4.99756E-03	2.2662
4.99781E-03	2.26182
4.99806E-03	2.25749
4.99831E-03	2.2532
4.99848E-03	2.25037
4.99881E-03	2.24474
4.99914E-03	2.23918
4.99947E-03	2.23367
4.99977E-03	2.22861
4.99980E-03	2.22829
5.00008E-03	2.22462
5.00051E-03	2.21916
5.00094E-03	2.21375
5.00136E-03	2.20838
5.00179E-03	2.20305
5.00208E-03	2.19951
5.00264E-03	2.19246
5.00321E-03	2.18545
5.00378E-03	2.17846
5.00463E-03	2.16801
5.00549E-03	2.15759
5.00662E-03	2.14373
5.00672E-03	2.14251
5.00890E-03	2.12358
5.01020E-03	2.11228
5.01231E-03	2.10394
5.01313E-03	2.10074
5.01402E-03	2.10011
5.01516E-03	2.09933
5.01629E-03	2.09856
5.01743E-03	2.09782
5.01800E-03	2.09745
5.01828E-03	2.09743
5.01911E-03	2.09736
5.02021E-03	2.0973
5.02132E-03	2.09725
5.02242E-03	2.09721
5.02464E-03	2.09715
5.16750E-03	2.09439
7.25990E-03	2.05616
9.64160E-03	2.01144
1.17950E-02	1.97183
1.37880E-02	1.96784
1.48480E-02	1.96608
1.49656E-02	1.96585
1.49697E-02	1.96585
1.49717E-02	1.96586
1.49733E-02	1.96588
1.49748E-02	1.96591
1.49759E-02	1.96594
1.49769E-02	1.96598
1.49779E-02	1.96604
1.49790E-02	1.96611
1.49800E-02	1.96619
1.49809E-02	1.96617
1.49818E-02	1.96616
1.49831E-02	1.96616
1.49844E-02	1.96618
1.49853E-02	1.9662
1.49870E-02	1.96627
1.49896E-02	1.9664
1.50010E-02	1.96703
1.50045E-02	1.9672
1.50071E-02	1.96728
1.50095E-02	1.96733
1.50125E-02	1.96734
1.50170E-02	1.9673
1.50215E-02	1.96722
1.50238E-02	1.96714
1.50260E-02	1.96701
1.50275E-02	1.96688
1.50283E-02	1.96679
1.50297E-02	1.96657
1.50309E-02	1.96636
1.50320E-02	1.9661
1.50331E-02	1.96613
1.50341E-02	1.96613
1.50352E-02	1.96609
1.50368E-02	1.96597
1.50384E-02	1.96579
1.50410E-02	1.96543
1.50437E-02	1.96506
1.50453E-02	1.96488
1.50463E-02	1.96477
1.50474E-02	1.96469
1.50485E-02	1.96464
1.50494E-02	1.96461
1.50503E-02	1.9646
1.50512E-02	1.96461
1.50521E-02	1.96463
1.50534E-02	1.9647
1.50547E-02	1.96479
1.50560E-02	1.96491
1.50578E-02	1.96508
1.50595E-02	1.96528
1.50630E-02	1.96569
1.50658E-02	1.96603
1.50665E-02	1.96602
1.50700E-02	1.96598
1.50717E-02	1.96597
1.50735E-02	1.96597
1.50752E-02	1.96598
1.50766E-02	1.96601
1.50770E-02	1.96602
1.50780E-02	1.96592
1.50791E-02	1.96581
1.50808E-02	1.96567
1.50827E-02	1.96552
1.50846E-02	1.96538
1.50884E-02	1.96513
1.50961E-02	1.96465
1.51008E-02	1.96436
1.51027E-02	1.96425
1.51042E-02	1.96419
1.51051E-02	1.96417
1.51061E-02	1.96415
1.51070E-02	1.96416
1.51077E-02	1.96418
1.51085E-02	1.96422
1.51092E-02	1.96429
1.51099E-02	1.96437
1.51106E-02	1.96448
1.51113E-02	1.96462
1.51120E-02	1.96479
1.51127E-02	1.965
1.51135E-02	1.96524
1.51142E-02	1.96551
1.51149E-02	1.96582
1.51151E-02	1.96594
1.51156E-02	1.96584
1.51163E-02	1.96574
1.51170E-02	1.96566
1.51180E-02	1.96561
1.51189E-02	1.96561
1.51199E-02	1.96564
1.51213E-02	1.96576
1.51232E-02	1.96599
1.51304E-02	1.96711
1.51332E-02	1.96744
1.51351E-02	1.96755
1.51370E-02	1.96753
1.51387E-02	1.96737
1.51401E-02	1.96712
1.51414E-02	1.96674
1.51428E-02	1.9662
1.51435E-02	1.96584
1.51442E-02	1.96589
1.51449E-02	1.96585
1.51452E-02	1.96595
1.51456E-02	1.96603
1.51466E-02	1.96615
1.51476E-02	1.96613
1.51487E-02	1.96595
1.51490E-02	1.96584
1.51495E-02	1.96612
1.51506E-02	1.96653
1.51517E-02	1.96678
1.51527E-02	1.96689
1.51538E-02	1.96687
1.51554E-02	1.96665
1.51575E-02	1.96616
1.51602E-02	1.96548
1.51615E-02	1.96522
1.51625E-02	1.9651
1.51633E-02	1.96506
1.51641E-02	1.96508
1.51649E-02	1.96516
1.51657E-02	1.9653
1.51663E-02	1.96544
1.51669E-02	1.96563
1.51675E-02	1.96584
1.51676E-02	1.96581
1.51682E-02	1.96556
1.51688E-02	1.96534
1.51694E-02	1.96515
1.51701E-02	1.965
1.51707E-02	1.96487
1.51713E-02	1.96478
1.51719E-02	1.96471
1.51729E-02	1.96464
1.51738E-02	1.96461
1.51748E-02	1.96461
1.51760E-02	1.96465
1.51772E-02	1.96472
1.51785E-02	1.96481
1.51797E-02	1.96492
1.51810E-02	1.96505
1.51823E-02	1.96519
1.51835E-02	1.96535
1.51847E-02	1.96554
1.51860E-02	1.96574
1.51871E-02	1.96559
1.51882E-02	1.96545
1.51892E-02	1.96533
1.51909E-02	1.96518
1.51925E-02	1.96505
1.51946E-02	1.9649
1.51979E-02	1.96471
1.52227E-02	1.96338
1.52270E-02	1.96317
1.52291E-02	1.96309
1.52307E-02	1.96307
1.52318E-02	1.96308
1.52329E-02	1.96312
1.52340E-02	1.96319
1.52351E-02	1.9633
1.52361E-02	1.96346
1.52372E-02	1.96367
1.52383E-02	1.96393
1.52394E-02	1.96425
1.52404E-02	1.96463
1.52415E-02	1.96506
1.52426E-02	1.96555
1.52429E-02	1.96569
1.52437E-02	1.96533
1.52448E-02	1.96491
1.52458E-02	1.96457
1.52469E-02	1.96432
1.52477E-02	1.9642
1.52485E-02	1.96416
1.52493E-02	1.96421
1.52501E-02	1.96437
1.52510E-02	1.96465
1.52518E-02	1.96507
1.52526E-02	1.96565
1.52526E-02	1.9657
1.52534E-02	1.96497
1.52542E-02	1.96438
1.52550E-02	1.96397
1.52558E-02	1.96376
1.52566E-02	1.96374
1.52574E-02	1.96392
1.52582E-02	1.9643
1.52591E-02	1.96486
1.52599E-02	1.96561
1.52599E-02	1.96568
1.52607E-02	1.96496
1.52619E-02	1.96414
1.52631E-02	1.96372
1.52643E-02	1.96373
1.52656E-02	1.9642
1.52668E-02	1.96515
1.52673E-02	1.96572
1.52680E-02	1.96508
1.52691E-02	1.9646
1.52702E-02	1.96459
1.52714E-02	1.96507
1.52721E-02	1.9657
1.52725E-02	1.96532
1.52742E-02	1.96453
1.52759E-02	1.96483
1.52770E-02	1.96578
1.52777E-02	1.96511
1.52798E-02	1.96453
1.52846E-02	1.96607
1.52864E-02	1.96546
1.52866E-02	1.96596
1.52880E-02	1.96717
1.52895E-02	1.96654
1.52901E-02	1.96544
1.52905E-02	1.96622
1.52915E-02	1.96711
1.52925E-02	1.96673
1.52932E-02	1.96547
1.52934E-02	1.96571
1.52943E-02	1.96564
1.52944E-02	1.96554
1.52948E-02	1.96617
1.52958E-02	1.96674
1.52967E-02	1.9659
1.52969E-02	1.96544
1.52976E-02	1.96667
1.52986E-02	1.96668
1.52993E-02	1.96543
1.52995E-02	1.96593
1.53004E-02	1.96687
1.53014E-02	1.96623
1.53018E-02	1.96538
1.53023E-02	1.96632
1.53033E-02	1.96652
1.53042E-02	1.96556
1.53056E-02	1.9661
1.53087E-02	1.96483
1.53100E-02	1.96529
1.53103E-02	1.96567
1.53110E-02	1.96437
1.53119E-02	1.96367
1.53125E-02	1.96372
1.53132E-02	1.96429
1.53138E-02	1.96537
1.53139E-02	1.9656
1.53145E-02	1.96462
1.53152E-02	1.96397
1.53158E-02	1.96379
1.53165E-02	1.96408
1.53171E-02	1.9648
1.53176E-02	1.9656
1.53178E-02	1.9653
1.53185E-02	1.9646
1.53190E-02	1.96436
1.53195E-02	1.96431
1.53200E-02	1.96445
1.53205E-02	1.96476
1.53210E-02	1.96524
1.53213E-02	1.96556
1.53215E-02	1.96524
1.53220E-02	1.96475
1.53226E-02	1.96437
1.53231E-02	1.96416
1.53237E-02	1.96411
1.53242E-02	1.96421
1.53248E-02	1.96445
1.53254E-02	1.96483
1.53259E-02	1.96533
1.53261E-02	1.96553
1.53265E-02	1.96529
1.53271E-02	1.96504
1.53276E-02	1.96488
1.53282E-02	1.96481
1.53288E-02	1.96482
1.53293E-02	1.9649
1.53299E-02	1.96504
1.53304E-02	1.96525
1.53310E-02	1.96551
1.53318E-02	1.9651
1.53326E-02	1.96477
1.53334E-02	1.96451
1.53343E-02	1.96432
1.53351E-02	1.96417
1.53363E-02	1.96402
1.53375E-02	1.96395
1.53391E-02	1.96392
1.53408E-02	1.96394
1.53432E-02	1.96404
1.53472E-02	1.96426
1.53505E-02	1.96447
1.53521E-02	1.9646
1.53538E-02	1.96476
1.53554E-02	1.96494
1.53570E-02	1.96516
1.53583E-02	1.96536
1.53585E-02	1.96539
1.53595E-02	1.9653
1.53612E-02	1.96519
1.53629E-02	1.9651
1.53654E-02	1.96501
1.53688E-02	1.96492
1.54009E-02	1.96428
1.54059E-02	1.96419
1.54093E-02	1.96414
1.54131E-02	1.9641
1.54173E-02	1.96409
1.54277E-02	1.96409
1.54696E-02	1.96411
1.54780E-02	1.96413
1.54848E-02	1.96416
1.55875E-02	1.96476
1.56240E-02	1.96498
1.56516E-02	1.96469
1.67592E-02	1.95331
1.82420E-02	1.93408
2.07862E-02	1.90135
2.17260E-02	1.88365
2.55400E-02	1.81249
2.81884E-02	1.78726
2.83300E-02	1.78592
2.93349E-02	1.77677
3.07400E-02	1.76397
3.15857E-02	1.75594
3.15908E-02	1.7559
3.15942E-02	1.75587
3.15967E-02	1.75586
3.15992E-02	1.75585
3.16009E-02	1.75586
3.16026E-02	1.75587
3.16043E-02	1.75588
3.16060E-02	1.7559
3.16079E-02	1.75594
3.16099E-02	1.75598
3.16118E-02	1.75604
3.16137E-02	1.7561
3.16167E-02	1.7562
3.16215E-02	1.75639
3.16370E-02	1.75703
3.16448E-02	1.75619
3.16506E-02	1.75558
3.16535E-02	1.75529
3.16554E-02	1.75511
3.16573E-02	1.75496
3.16588E-02	1.75486
3.16603E-02	1.75479
3.16617E-02	1.75474
3.16632E-02	1.75473
3.16646E-02	1.75476
3.16656E-02	1.7548
3.16665E-02	1.75487
3.16680E-02	1.755
3.16693E-02	1.75516
3.16706E-02	1.75536
3.16719E-02	1.7556
3.16732E-02	1.75587
3.16750E-02	1.75629
3.16765E-02	1.75668
3.16768E-02	1.75664
3.16785E-02	1.75642
3.16811E-02	1.75614
3.16838E-02	1.75595
3.16855E-02	1.75588
3.16872E-02	1.75587
3.16890E-02	1.75593
3.16908E-02	1.75609
3.16925E-02	1.75636
3.16935E-02	1.75658
3.16942E-02	1.75631
3.16960E-02	1.75581
3.16978E-02	1.75545
3.16996E-02	1.75522
3.17019E-02	1.75511
3.17049E-02	1.75521
3.17150E-02	1.75612
3.17190E-02	1.75632
3.17242E-02	1.75522
3.17281E-02	1.75471
3.17307E-02	1.75471
3.17334E-02	1.75502
3.17400E-02	1.75633
3.17420E-02	1.75639
3.17440E-02	1.75605
3.17459E-02	1.75697
3.17478E-02	1.75737
3.17496E-02	1.75723
3.17515E-02	1.75655
3.17525E-02	1.75592
3.17534E-02	1.75643
3.17552E-02	1.75704
3.17571E-02	1.75716
3.17590E-02	1.75681
3.17609E-02	1.75599
3.17610E-02	1.7559
3.17627E-02	1.75666
3.17646E-02	1.75704
3.17665E-02	1.75703
3.17693E-02	1.75648
3.17747E-02	1.75491
3.17774E-02	1.75441
3.17802E-02	1.75424
3.17850E-02	1.75442
3.17905E-02	1.75477
3.17926E-02	1.75504
3.17939E-02	1.75532
3.17950E-02	1.75564
3.17953E-02	1.75545
3.17965E-02	1.75486
3.17975E-02	1.75445
3.17985E-02	1.75414
3.17995E-02	1.75392
3.18005E-02	1.75381
3.18012E-02	1.75378
3.18020E-02	1.75381
3.18028E-02	1.75389
3.18035E-02	1.75402
3.18042E-02	1.75419
3.18050E-02	1.75441
3.18057E-02	1.75466
3.18065E-02	1.75496
3.18075E-02	1.7554
3.18078E-02	1.75553
3.18085E-02	1.75528
3.18095E-02	1.75499
3.18105E-02	1.75475
3.18115E-02	1.75455
3.18127E-02	1.75435
3.18137E-02	1.75421
3.18147E-02	1.7541
3.18160E-02	1.75399
3.18174E-02	1.75391
3.18187E-02	1.75386
3.18201E-02	1.75383
3.18221E-02	1.75382
3.18241E-02	1.75385
3.18268E-02	1.75391
3.18308E-02	1.75403
3.18402E-02	1.75436
3.18443E-02	1.75452
3.18469E-02	1.75463
3.18496E-02	1.75475
3.18523E-02	1.75489
3.18543E-02	1.75501
3.18550E-02	1.75505
3.18561E-02	1.75501
3.18583E-02	1.75494
3.18605E-02	1.75488
3.18638E-02	1.75481
3.18671E-02	1.75476
3.18726E-02	1.75468
3.21238E-02	1.75181
3.21326E-02	1.75172
3.21386E-02	1.75166
3.21464E-02	1.75159
3.23308E-02	1.75025
3.23406E-02	1.75017
3.23441E-02	1.75014
3.35506E-02	1.73886
3.36510E-02	1.73792
3.50887E-02	1.72526
3.59850E-02	1.71736
3.66101E-02	1.71179
3.72402E-02	1.65043
3.72481E-02	1.64967
3.72558E-02	1.64894
3.72671E-02	1.64787
3.74817E-02	1.62781
3.74892E-02	1.62711
3.74983E-02	1.62629
3.75141E-02	1.62489
3.76514E-02	1.61283
3.76620E-02	1.61188
3.76734E-02	1.61084
3.77416E-02	1.60451
3.77487E-02	1.60384
3.77530E-02	1.60341
3.77593E-02	1.60277
3.77656E-02	1.6021
3.78347E-02	1.59463
3.78405E-02	1.594
3.78472E-02	1.59335
3.78535E-02	1.59274
3.79477E-02	1.58376
3.79597E-02	1.58263
3.80380E-02	1.57537
3.81198E-02	1.58546
3.81284E-02	1.58653
3.81327E-02	1.58707
3.81370E-02	1.58762
3.81418E-02	1.58825
3.81466E-02	1.58889
3.81625E-02	1.59107
3.83282E-02	1.61373
3.83378E-02	1.61502
3.83433E-02	1.61573
3.83456E-02	1.61603
3.83548E-02	1.61718
3.84719E-02	1.6317
3.84777E-02	1.63242
3.84811E-02	1.63286
3.84857E-02	1.63348
3.84898E-02	1.63406
3.84935E-02	1.63459
3.84990E-02	1.63542
3.85099E-02	1.63712
3.85648E-02	1.64572
3.85683E-02	1.64627
3.85703E-02	1.64814
3.85739E-02	1.65158
3.85768E-02	1.65427
3.85776E-02	1.65629
3.85803E-02	1.66304
3.85831E-02	1.66983
3.85842E-02	1.67271
3.85867E-02	1.68307
3.85922E-02	1.70589
3.85939E-02	1.71284
3.85977E-02	1.73219
3.86004E-02	1.74607
3.86032E-02	1.75989
3.86059E-02	1.77347
3.86085E-02	1.78661
3.86116E-02	1.80187
3.86155E-02	1.82142
3.86225E-02	1.85613
3.86247E-02	1.867
3.86278E-02	1.88227
3.86304E-02	1.89542
3.86330E-02	1.90864
3.86354E-02	1.92097
3.86379E-02	1.93337
3.86403E-02	1.94581
3.86440E-02	1.96456
3.86476E-02	1.98337
3.86623E-02	2.05874
3.86696E-02	2.09635
3.86711E-02	2.10436
3.86758E-02	2.135
3.86792E-02	2.1569
3.86834E-02	2.19443
3.86840E-02	2.19938
3.86907E-02	2.27494
3.86930E-02	2.30701
3.86968E-02	2.35995
3.87006E-02	2.41299
3.87018E-02	2.42911
3.87044E-02	2.46788
3.87082E-02	2.52367
3.87120E-02	2.57962
3.87158E-02	2.63567
3.87216E-02	2.7199
3.87273E-02	2.80426
3.87330E-02	2.88878
3.87381E-02	2.96469
3.87420E-02	3.02177
3.87458E-02	3.07902
3.87497E-02	3.13653
3.87522E-02	3.17506
3.87548E-02	3.21377
3.87586E-02	3.27216
3.87609E-02	3.30655
3.87638E-02	3.35805
3.87653E-02	3.38551
3.87682E-02	3.45021
3.87702E-02	3.50385
3.87712E-02	3.53147
3.87740E-02	3.63264
3.87741E-02	3.63597
3.87763E-02	3.73303
3.87775E-02	3.79574
3.87785E-02	3.8478
3.87810E-02	4.00143
3.87814E-02	4.0283
3.87844E-02	4.2365
3.87902E-02	4.70126
3.87915E-02	4.79864
3.87947E-02	5.04474
3.87976E-02	5.24731
3.87985E-02	5.29954
3.88005E-02	5.41664
3.88029E-02	5.52445
3.88055E-02	5.61319
3.88056E-02	5.61531
3.88082E-02	5.67527
3.88090E-02	5.6851
3.88109E-02	5.70939
3.88125E-02	5.71668
3.88145E-02	5.72547
3.88160E-02	5.72204
3.88198E-02	5.71306
3.88213E-02	5.7029
3.88265E-02	5.66522
3.88269E-02	5.66205
3.88305E-02	5.61781
3.88320E-02	5.58893
3.88341E-02	5.54902
3.88376E-02	5.44335
3.88380E-02	5.428
3.88403E-02	5.33369
3.88420E-02	5.24634
3.88430E-02	5.19652
3.88460E-02	5.00844
3.88465E-02	4.9754
3.88499E-02	4.73795
3.88537E-02	4.46226
3.88554E-02	4.34198
3.88576E-02	4.20016
3.88590E-02	4.11085
3.88615E-02	3.96973
3.88621E-02	3.93791
3.88651E-02	3.7895
3.88654E-02	3.77911
3.88682E-02	3.66199
3.88693E-02	3.62315
3.88713E-02	3.54986
3.88751E-02	3.426
3.88774E-02	3.35083
3.88848E-02	3.12873
3.88925E-02	2.89569
3.88927E-02	2.89006
3.88983E-02	2.73187
3.88988E-02	2.71783
3.89022E-02	2.63417
3.89034E-02	2.60404
3.89061E-02	2.54823
3.89065E-02	2.53973
3.89095E-02	2.48789
3.89101E-02	2.47804
3.89125E-02	2.4473
3.89142E-02	2.42539
3.89155E-02	2.41405
3.89184E-02	2.3883
3.89185E-02	2.38761
3.89215E-02	2.3688
3.89245E-02	2.35011
3.89246E-02	2.34934
3.89275E-02	2.33483
3.89305E-02	2.31982
3.89332E-02	2.3065
3.89367E-02	2.289
3.89403E-02	2.27167
3.89439E-02	2.25447
3.89510E-02	2.22023
3.89629E-02	2.16333
3.89700E-02	2.12926
3.89771E-02	2.09528
3.89890E-02	2.03876
3.90032E-02	1.97102
3.90133E-02	1.92324
3.90186E-02	1.89806
3.90239E-02	1.87292
3.90279E-02	1.85411
3.90285E-02	1.85124
3.90319E-02	1.83792
3.90359E-02	1.82225
3.90368E-02	1.81852
3.90399E-02	1.81093
3.90439E-02	1.801
3.90444E-02	1.7997
3.90505E-02	1.79411
3.90545E-02	1.79045
3.90771E-02	1.7874
3.90850E-02	1.78635
3.90890E-02	1.78584
3.90930E-02	1.78536
3.90979E-02	1.78481
3.91028E-02	1.78428
3.91061E-02	1.78395
3.91193E-02	1.78264
3.92932E-02	1.7654
3.93030E-02	1.76444
3.93137E-02	1.76341
3.94633E-02	1.74927
3.94740E-02	1.74826
3.94962E-02	1.7462
3.99430E-02	1.70478
4.01830E-02	1.69454
4.09690E-02	1.66104
4.32090E-02	1.48794
4.59620E-02	1.31161
4.76060E-02	1.2061
5.06360E-02	0.888153
5.07630E-02	0.866169
5.22660E-02	0.606291
5.29294E-02	0.418378
5.29411E-02	0.415054
5.29495E-02	0.412693
5.29570E-02	0.410588
5.29769E-02	0.404984
5.32870E-02	0.317694
5.35442E-02	0.237988
5.35670E-02	0.230915
5.37526E-02	0.16358
5.37619E-02	0.160891
5.37722E-02	0.159124
5.37866E-02	0.158241
5.39806E-02	0.152237
5.39914E-02	0.152573
5.39985E-02	0.153489
5.40089E-02	0.155857
5.42061E-02	0.213431
5.42160E-02	0.216348
5.42245E-02	0.218837
5.42249E-02	0.21901
5.42314E-02	0.221463
5.42367E-02	0.224263
5.42384E-02	0.225173
5.42436E-02	0.229072
5.42488E-02	0.234004
5.42557E-02	0.241826
5.42940E-02	0.290286
5.44261E-02	0.459441
5.44365E-02	0.475512
5.44434E-02	0.488697
5.44534E-02	0.512011
5.46416E-02	0.998782
5.46516E-02	1.02825
5.46617E-02	1.06323
5.46816E-02	1.14461
5.47063E-02	1.2484
5.47181E-02	1.29774
5.47270E-02	1.3351
5.47419E-02	1.39787
5.48480E-02	1.8451
5.48580E-02	1.89301
5.48647E-02	1.93448
5.48706E-02	1.98251
5.48786E-02	2.06212
5.48944E-02	2.248
5.50212E-02	3.78279
5.50317E-02	3.92278
5.50400E-02	4.05355
5.50422E-02	4.08859
5.50579E-02	4.38032
5.51883E-02	6.9304
5.51962E-02	7.10566
5.52040E-02	7.32117
5.52107E-02	7.54757
5.52174E-02	7.80585
5.52909E-02	10.9123
5.52990E-02	11.2745
5.53043E-02	11.5132
5.53110E-02	11.8568
5.53199E-02	12.3803
5.53360E-02	13.4291
5.53378E-02	13.5475
5.54215E-02	19.1372
5.54406E-02	20.4125
5.54500E-02	21.1179
5.54540E-02	21.4179
5.54659E-02	22.4733
5.55489E-02	30.6027
5.55490E-02	30.615
5.55630E-02	32.0788
5.55769E-02	33.5294
5.55895E-02	34.8493
5.56030E-02	36.4363
5.56469E-02	42.147
5.56570E-02	43.2902
5.56689E-02	44.3374
5.56867E-02	45.5774
5.57045E-02	46.5348
5.57110E-02	46.8103
5.57401E-02	48.0446
5.57480E-02	48.1752
5.57505E-02	48.2169
5.57572E-02	48.1142
5.57676E-02	47.6659
5.57831E-02	46.6867
5.57935E-02	45.8555
5.58350E-02	41.8992
5.58530E-02	40.4842
5.58590E-02	40.0496
5.58980E-02	37.2248
5.59070E-02	36.6346
5.59307E-02	35.3361
5.60020E-02	31.6797
5.60980E-02	26.3282
5.61235E-02	25.0807
5.61384E-02	24.3492
5.62021E-02	21.2287
5.62170E-02	20.57
5.62327E-02	20.0188
5.63114E-02	17.5879
5.63736E-02	15.6676
5.63840E-02	15.3881
5.63981E-02	15.091
5.65292E-02	12.7854
5.65420E-02	12.5601
5.65575E-02	12.288
5.65959E-02	11.6127
5.66100E-02	11.3882
5.66324E-02	11.114
5.67666E-02	9.6238
5.67890E-02	9.39487
5.68121E-02	9.2314
5.71580E-02	7.07933
5.71917E-02	6.93617
5.72020E-02	6.89235
5.72290E-02	6.77768
5.74265E-02	5.93893
5.75160E-02	5.57069
5.77365E-02	5.12461
5.79570E-02	4.69179
5.80120E-02	4.6383
5.80660E-02	4.5858
5.84755E-02	4.18817
5.85930E-02	4.07408
5.93290E-02	3.43945
5.97040E-02	3.23834
6.02720E-02	2.93387
6.13880E-02	2.70157
6.26660E-02	2.52792
6.39040E-02	2.33552
6.41510E-02	2.29715
6.46688E-02	2.24496
6.46840E-02	2.24343
6.46962E-02	2.24222
6.49643E-02	2.21572
6.49735E-02	2.21482
6.49795E-02	2.21424
6.49841E-02	2.21381
6.49887E-02	2.2134
6.49933E-02	2.213
6.50009E-02	2.21235
6.50131E-02	2.21134
6.50557E-02	2.20784
6.50649E-02	2.20711
6.50709E-02	2.20664
6.50740E-02	2.20642
6.50761E-02	2.20615
6.50825E-02	2.20536
6.50910E-02	2.20433
6.51165E-02	2.20133
6.51271E-02	2.2001
6.51335E-02	2.19941
6.51378E-02	2.19898
6.51420E-02	2.19859
6.51466E-02	2.19822
6.51512E-02	2.19788
6.51573E-02	2.19749
6.51726E-02	2.1966
6.52008E-02	2.19498
6.52154E-02	2.19408
6.52227E-02	2.19356
6.52276E-02	2.19315
6.52324E-02	2.19268
6.52397E-02	2.19186
6.52495E-02	2.19061
6.52592E-02	2.18928
6.52666E-02	2.1882
6.52690E-02	2.18782
6.52763E-02	2.18746
6.52836E-02	2.18701
6.52909E-02	2.18646
6.52964E-02	2.18598
6.53019E-02	2.18542
6.53092E-02	2.18457
6.53202E-02	2.18316
6.53312E-02	2.18167
6.53320E-02	2.18155
6.53385E-02	2.18102
6.53494E-02	2.18004
6.53695E-02	2.17816
6.53750E-02	2.17768
6.53787E-02	2.17739
6.53823E-02	2.17713
6.53860E-02	2.17691
6.53892E-02	2.17652
6.53924E-02	2.17617
6.53966E-02	2.17573
6.54009E-02	2.17533
6.54072E-02	2.17477
6.54285E-02	2.17297
6.54413E-02	2.1719
6.54476E-02	2.17138
6.54540E-02	2.17088
6.54605E-02	2.1704
6.54671E-02	2.16993
6.54802E-02	2.16903
6.54900E-02	2.16837
6.54966E-02	2.16795
6.55015E-02	2.16765
6.55030E-02	2.16756
6.55064E-02	2.16726
6.55113E-02	2.16684
6.55162E-02	2.16644
6.55260E-02	2.16565
6.58730E-02	2.13808
6.67720E-02	2.06708
6.69223E-02	2.10329
6.69275E-02	2.10455
6.69348E-02	2.10631
6.69429E-02	2.10827
6.69546E-02	2.11112
6.72923E-02	2.19372
6.72977E-02	2.1968
6.73074E-02	2.20241
6.73131E-02	2.20573
6.73132E-02	2.20584
6.73191E-02	2.21111
6.73249E-02	2.21641
6.73288E-02	2.21995
6.73366E-02	2.22705
6.73756E-02	2.26265
6.74146E-02	2.29825
6.74224E-02	2.30539
6.74263E-02	2.30898
6.74302E-02	2.3126
6.74341E-02	2.31624
6.74380E-02	2.31993
6.74420E-02	2.32378
6.74461E-02	2.32767
6.74514E-02	2.33292
6.74568E-02	2.3382
6.74622E-02	2.34352
6.74676E-02	2.34889
6.74705E-02	2.35186
6.74716E-02	2.35277
6.74756E-02	2.35617
6.74797E-02	2.35966
6.74837E-02	2.36326
6.74878E-02	2.36696
6.74919E-02	2.37074
6.74973E-02	2.37586
6.75082E-02	2.38623
6.75355E-02	2.41244
6.75408E-02	2.41637
6.75476E-02	2.42151
6.75517E-02	2.42472
6.75558E-02	2.42813
6.75585E-02	2.43056
6.75612E-02	2.43316
6.75639E-02	2.43597
6.75666E-02	2.43901
6.75691E-02	2.44197
6.75713E-02	2.44478
6.75736E-02	2.44799
6.75746E-02	2.44872
6.75778E-02	2.45159
6.75822E-02	2.45577
6.75877E-02	2.46139
6.75905E-02	2.46442
6.76008E-02	2.4816
6.76046E-02	2.48795
6.76130E-02	2.51911
6.76139E-02	2.5246
6.76183E-02	2.55052
6.76214E-02	2.56936
6.76227E-02	2.57868
6.76260E-02	2.60364
6.76292E-02	2.62926
6.76325E-02	2.65571
6.76358E-02	2.68314
6.76390E-02	2.71073
6.76420E-02	2.73749
6.76460E-02	2.77406
6.76557E-02	2.86393
6.76580E-02	2.88454
6.76609E-02	2.91809
6.76636E-02	2.94958
6.76678E-02	3.00982
6.76678E-02	3.01119
6.76721E-02	3.08921
6.76763E-02	3.18779
6.76763E-02	3.18961
6.76805E-02	3.31179
6.76815E-02	3.34654
6.76833E-02	3.41024
6.76849E-02	3.47537
6.76861E-02	3.52339
6.76884E-02	3.62743
6.76889E-02	3.65366
6.76918E-02	3.80446
6.76918E-02	3.80835
6.76946E-02	3.98041
6.76967E-02	4.1308
6.76970E-02	4.15447
6.76988E-02	4.29978
6.77009E-02	4.48801
6.77021E-02	4.60973
6.77030E-02	4.69632
6.77053E-02	4.94047
6.77075E-02	5.20501
6.77090E-02	5.39412
6.77105E-02	5.58338
6.77180E-02	6.56445
6.77191E-02	6.69725
6.77210E-02	6.91793
6.77233E-02	7.14819
6.77242E-02	7.2279
6.77255E-02	7.33881
6.77279E-02	7.49101
6.77292E-02	7.54714
6.77297E-02	7.56642
6.77315E-02	7.60526
6.77324E-02	7.61087
6.77342E-02	7.59407
6.77343E-02	7.5922
6.77361E-02	7.53883
6.77379E-02	7.44689
6.77394E-02	7.34162
6.77397E-02	7.3195
6.77415E-02	7.15804
6.77433E-02	6.96624
6.77460E-02	6.62937
6.77461E-02	6.61616
6.77487E-02	6.24473
6.77529E-02	5.60874
6.77533E-02	5.54586
6.77572E-02	4.92719
6.77579E-02	4.82583
6.77598E-02	4.55751
6.77616E-02	4.29769
6.77630E-02	4.12065
6.77635E-02	4.05594
6.77654E-02	3.83353
6.77669E-02	3.66435
6.77677E-02	3.58484
6.77688E-02	3.48021
6.77707E-02	3.31644
6.77725E-02	3.17739
6.77726E-02	3.17255
6.77744E-02	3.04614
6.77763E-02	2.9367
6.77773E-02	2.88962
6.77782E-02	2.842
6.77801E-02	2.76038
6.77819E-02	2.69078
6.77820E-02	2.68881
6.77838E-02	2.63064
6.77857E-02	2.57969
6.77868E-02	2.55642
6.77885E-02	2.51694
6.77913E-02	2.46838
6.77915E-02	2.46596
6.77941E-02	2.43024
6.77963E-02	2.4096
6.77975E-02	2.39643
6.78005E-02	2.37476
6.78010E-02	2.3725
6.78028E-02	2.36225
6.78058E-02	2.35152
6.78066E-02	2.34783
6.78105E-02	2.33906
6.78112E-02	2.3372
6.78153E-02	2.33248
6.78172E-02	2.3292
6.78200E-02	2.32823
6.78259E-02	2.32321
6.78263E-02	2.32272
6.78319E-02	2.32039
6.78390E-02	2.31467
6.78450E-02	2.3098
6.78480E-02	2.30855
6.78500E-02	2.3085
6.78506E-02	2.30871
6.78520E-02	2.307
6.78540E-02	2.30553
6.78556E-02	2.30507
6.78566E-02	2.30521
6.78574E-02	2.30392
6.78592E-02	2.30167
6.78609E-02	2.30022
6.78627E-02	2.29951
6.78645E-02	2.2995
6.78657E-02	2.29991
6.78663E-02	2.2992
6.78681E-02	2.29749
6.78693E-02	2.29661
6.78716E-02	2.29538
6.78740E-02	2.29471
6.78748E-02	2.29463
6.78764E-02	2.29308
6.78788E-02	2.29107
6.78823E-02	2.28854
6.78847E-02	2.28715
6.78871E-02	2.28598
6.78894E-02	2.28503
6.78918E-02	2.28433
6.78930E-02	2.2841
6.78942E-02	2.28296
6.78966E-02	2.28091
6.78989E-02	2.27908
6.79013E-02	2.27747
6.79037E-02	2.27603
6.79061E-02	2.27475
6.79084E-02	2.2736
6.79120E-02	2.27207
6.79156E-02	2.27074
6.79168E-02	2.27035
6.79179E-02	2.26962
6.79203E-02	2.26824
6.79215E-02	2.2676
6.79227E-02	2.26679
6.79251E-02	2.26529
6.79268E-02	2.26424
6.79286E-02	2.26327
6.79304E-02	2.26237
6.79310E-02	2.26209
6.79323E-02	2.26098
6.79342E-02	2.2594
6.79361E-02	2.2579
6.79380E-02	2.25648
6.79399E-02	2.25513
6.79418E-02	2.25384
6.79437E-02	2.25261
6.79462E-02	2.25103
6.79487E-02	2.24952
6.79512E-02	2.24805
6.79563E-02	2.24518
6.79664E-02	2.23957
6.80728E-02	2.18091
6.80803E-02	2.17674
6.80854E-02	2.17397
6.80905E-02	2.17122
6.80955E-02	2.16851
6.81005E-02	2.16583
6.81080E-02	2.16189
6.81081E-02	2.16189
6.81232E-02	2.16128
6.82339E-02	2.15694
6.82465E-02	2.15646
6.82540E-02	2.15619
6.82614E-02	2.15594
6.82738E-02	2.15555
6.95210E-02	2.11806
7.04667E-02	2.07707
7.04846E-02	2.0763
7.04935E-02	2.07592
7.05024E-02	2.07556
7.05158E-02	2.07505
7.06362E-02	2.07047
7.06496E-02	2.06997
7.06563E-02	2.06974
7.06630E-02	2.06953
7.06692E-02	2.0691
7.06755E-02	2.06868
7.06880E-02	2.06788
7.07411E-02	2.06453
7.07505E-02	2.06396
7.07567E-02	2.06361
7.07630E-02	2.0633
7.07679E-02	2.06309
7.07728E-02	2.06291
7.07825E-02	2.0626
7.08166E-02	2.06163
7.08239E-02	2.06145
7.08288E-02	2.06136
7.08337E-02	2.06131
7.08386E-02	2.06133
7.08437E-02	2.06141
7.08571E-02	2.06178
7.08612E-02	2.06184
7.08652E-02	2.06184
7.08692E-02	2.06175
7.08733E-02	2.06159
7.08773E-02	2.06133
7.08800E-02	2.06112
7.08840E-02	2.06072
7.08881E-02	2.06077
7.08921E-02	2.06075
7.08962E-02	2.06066
7.09023E-02	2.06045
7.09084E-02	2.06014
7.09124E-02	2.05987
7.09165E-02	2.05956
7.09206E-02	2.05918
7.09246E-02	2.05876
7.09307E-02	2.05804
7.09388E-02	2.05707
7.09429E-02	2.05663
7.09460E-02	2.05635
7.09490E-02	2.0561
7.09517E-02	2.05593
7.09544E-02	2.05579
7.09571E-02	2.05569
7.09597E-02	2.05561
7.09638E-02	2.05554
7.09678E-02	2.0555
7.09732E-02	2.05548
7.09786E-02	2.05549
7.09839E-02	2.05553
7.09893E-02	2.05558
7.09920E-02	2.05562
7.09936E-02	2.05551
7.09983E-02	2.05518
7.10031E-02	2.05488
7.10110E-02	2.05441
7.10300E-02	2.05332
7.10459E-02	2.05243
7.10522E-02	2.05208
7.10585E-02	2.05174
7.10649E-02	2.05143
7.10712E-02	2.05113
7.10807E-02	2.05071
7.11441E-02	2.04803
7.18030E-02	2.02015
7.37790E-02	1.93698
7.56880E-02	1.85628
7.85070E-02	1.74794
7.92630E-02	1.71907
8.31600E-02	1.64673
8.53419E-02	1.58885
8.54370E-02	1.58632
8.64819E-02	1.55863
8.64962E-02	1.55825
8.65034E-02	1.55807
8.65106E-02	1.5579
8.65154E-02	1.55779
8.65226E-02	1.55764
8.65298E-02	1.5575
8.65490E-02	1.55713
8.66352E-02	1.5555
8.66448E-02	1.55533
8.66496E-02	1.55525
8.66544E-02	1.55519
8.66580E-02	1.55515
8.66616E-02	1.55513
8.66640E-02	1.55512
8.66658E-02	1.55504
8.66693E-02	1.5549
8.66746E-02	1.5547
8.66781E-02	1.55458
8.66852E-02	1.55436
8.67064E-02	1.55376
8.67487E-02	1.55257
8.67558E-02	1.55238
8.67629E-02	1.55223
8.67682E-02	1.55216
8.67717E-02	1.55214
8.67752E-02	1.55216
8.67770E-02	1.55218
8.67790E-02	1.55203
8.67831E-02	1.55176
8.67872E-02	1.55154
8.67933E-02	1.55126
8.68014E-02	1.55094
8.68136E-02	1.55052
8.68217E-02	1.55028
8.68278E-02	1.55016
8.68318E-02	1.55015
8.68359E-02	1.5502
8.68400E-02	1.55033
8.68420E-02	1.55044
8.68440E-02	1.5502
8.68481E-02	1.54982
8.68522E-02	1.54952
8.68583E-02	1.54919
8.68684E-02	1.54882
8.68826E-02	1.54844
8.68928E-02	1.5483
8.68989E-02	1.54837
8.69050E-02	1.54863
8.69070E-02	1.5488
8.69119E-02	1.54859
8.69192E-02	1.54858
8.69363E-02	1.54896
8.69436E-02	1.54889
8.69506E-02	1.54856
8.69599E-02	1.54772
8.69635E-02	1.54729
8.69876E-02	1.5475
8.70061E-02	1.54811
8.70131E-02	1.54794
8.70177E-02	1.54744
8.70228E-02	1.54642
8.70257E-02	1.5456
8.70264E-02	1.54561
8.70285E-02	1.54546
8.70314E-02	1.54591
8.70371E-02	1.54622
8.70427E-02	1.54597
8.70484E-02	1.5453
8.70541E-02	1.54434
8.70683E-02	1.54435
8.70740E-02	1.54411
8.70769E-02	1.54381
8.70797E-02	1.54439
8.70840E-02	1.54489
8.70882E-02	1.54501
8.70925E-02	1.54474
8.70968E-02	1.54416
8.70996E-02	1.54365
8.71067E-02	1.54247
8.71110E-02	1.54195
8.71143E-02	1.54174
8.71175E-02	1.54171
8.71207E-02	1.54186
8.71240E-02	1.54216
8.71273E-02	1.54259
8.71289E-02	1.54287
8.71321E-02	1.54246
8.71370E-02	1.54201
8.71409E-02	1.54178
8.71449E-02	1.54166
8.71475E-02	1.54166
8.71501E-02	1.54174
8.71527E-02	1.54191
8.71547E-02	1.5421
8.71557E-02	1.54222
8.71567E-02	1.54204
8.71587E-02	1.54171
8.71610E-02	1.54143
8.71632E-02	1.54123
8.71655E-02	1.54109
8.71677E-02	1.54102
8.71700E-02	1.541
8.71722E-02	1.54103
8.71745E-02	1.54111
8.71775E-02	1.54125
8.71805E-02	1.54144
8.71825E-02	1.54158
8.71850E-02	1.54148
8.71910E-02	1.54129
8.72240E-02	1.54036
8.72360E-02	1.54004
8.72420E-02	1.53991
8.72465E-02	1.53982
8.72510E-02	1.53975
8.72540E-02	1.53972
8.72559E-02	1.53963
8.72597E-02	1.53946
8.72635E-02	1.5393
8.72692E-02	1.53909
8.72767E-02	1.53884
8.72843E-02	1.53861
8.77163E-02	1.5255
8.77238E-02	1.52528
8.77314E-02	1.52506
8.77371E-02	1.52489
8.77427E-02	1.52474
8.77463E-02	1.52464
8.77536E-02	1.52445
8.77628E-02	1.52422
8.86750E-02	1.5013
9.02147E-02	1.46232
9.50300E-02	1.33626
1.00220E-01	1.23144
1.05990E-01	1.1152
1.19020E-01	0.789956
1.25247E-01	0.634591
1.31630E-01	0.480067
1.32960E-01	0.447858
1.39440E-01	0.327775
1.41690E-01	0.286
1.44370E-01	0.228272
1.46466E-01	0.1923
1.46490E-01	0.191884
1.46519E-01	0.191392
1.46900E-01	0.184974
1.47108E-01	0.183714
1.47118E-01	0.183651
1.47126E-01	0.183614
1.47133E-01	0.183582
1.47138E-01	0.183563
1.47140E-01	0.183559
1.47144E-01	0.183525
1.47151E-01	0.18347
1.47158E-01	0.18342
1.47169E-01	0.183354
1.47289E-01	0.182684
1.47391E-01	0.182119
1.47409E-01	0.18203
1.47420E-01	0.18199
1.47430E-01	0.181913
1.47440E-01	0.181846
1.47520E-01	0.181383
1.47560E-01	0.181163
1.47575E-01	0.181109
1.47580E-01	0.181105
1.47588E-01	0.181039
1.47604E-01	0.180952
1.47682E-01	0.180649
1.47694E-01	0.180574
1.47702E-01	0.180494
1.47710E-01	0.180377
1.47718E-01	0.180382
1.47725E-01	0.180356
1.47732E-01	0.180309
1.47750E-01	0.180147
1.47755E-01	0.180142
1.47772E-01	0.18009
1.47780E-01	0.180034
1.47789E-01	0.179941
1.47790E-01	0.179921
1.47797E-01	0.179938
1.47806E-01	0.17992
1.47817E-01	0.179854
1.47868E-01	0.179445
1.47879E-01	0.179376
1.47887E-01	0.179346
1.47895E-01	0.179343
1.47897E-01	0.17932
1.47904E-01	0.179256
1.47917E-01	0.179159
1.47966E-01	0.178894
1.47979E-01	0.178825
1.47990E-01	0.178783
1.48000E-01	0.178757
1.48008E-01	0.178684
1.48017E-01	0.178623
1.48034E-01	0.17852
1.48146E-01	0.177892
1.48160E-01	0.177819
1.48169E-01	0.177782
1.48177E-01	0.177753
1.48180E-01	0.177747
1.48183E-01	0.177725
1.48191E-01	0.177667
1.48200E-01	0.177618
1.48214E-01	0.177548
1.48450E-01	0.176454
1.48506E-01	0.177945
1.48523E-01	0.178394
1.48534E-01	0.178696
1.48548E-01	0.179072
1.48556E-01	0.179297
1.48589E-01	0.180208
1.49752E-01	0.212592
1.49850E-01	0.215321
1.49990E-01	0.219215
1.50210E-01	0.225538
1.52180E-01	0.335176
1.54790E-01	0.494281
1.55010E-01	0.515445
1.57610E-01	0.766004
1.58030E-01	0.83045
1.59290E-01	1.02416
1.59470E-01	1.05183
1.60425E-01	1.1979
1.61380E-01	1.34397
1.64560E-01	2.07383
1.64780E-01	2.12438
1.67870E-01	3.20835
1.69340E-01	4.01938
1.70540E-01	4.68136
1.73000E-01	6.36799
1.73320E-01	6.58745
1.75230E-01	7.96735
1.76200E-01	8.66789
1.79080E-01	10.9427
1.79690E-01	11.388
1.80830E-01	12.2201
1.82560E-01	13.162
1.82580E-01	13.1729
1.84330E-01	13.9309
1.85590E-01	14.1677
1.86290E-01	14.2991
1.88699E-01	14.2369
1.89575E-01	14.2142
1.94210E-01	13.2178
1.95300E-01	12.9447
1.97410E-01	12.416
2.00800E-01	11.398
2.03900E-01	10.6093
2.05230E-01	10.2711
2.09650E-01	9.33954
2.15850E-01	8.41992
2.18710E-01	7.99587
2.23030E-01	7.43266
2.27150E-01	7.10414
2.40430E-01	6.04562
2.44040E-01	5.82978
2.48040E-01	5.59069
2.61240E-01	5.12288
2.72420E-01	4.72675
2.79710E-01	4.57323
2.85050E-01	4.46081
2.93250E-01	4.32195
2.96630E-01	4.26462
2.97232E-01	4.25462
2.97332E-01	4.25295
2.97357E-01	4.25254
2.97382E-01	4.25214
2.97633E-01	4.24826
2.97667E-01	4.24775
2.97683E-01	4.2475
2.97696E-01	4.24734
2.97709E-01	4.24719
2.97718E-01	4.2471
2.97735E-01	4.24693
2.97805E-01	4.24634
2.97962E-01	4.24503
2.97980E-01	4.2449
2.97993E-01	4.24471
2.98108E-01	4.24313
2.98364E-01	4.23964
2.98390E-01	4.23931
2.98432E-01	4.23883
2.98528E-01	4.2378
2.98549E-01	4.2376
2.98571E-01	4.23746
2.98605E-01	4.23733
2.98706E-01	4.23706
2.98729E-01	4.23692
2.98746E-01	4.23673
2.98763E-01	4.23644
2.98785E-01	4.23598
2.98889E-01	4.23364
2.98909E-01	4.23314
2.98920E-01	4.2328
2.98941E-01	4.23208
2.98961E-01	4.23128
2.99044E-01	4.22792
2.99085E-01	4.22633
2.99219E-01	4.22437
2.99240E-01	4.22401
2.99250E-01	4.22379
2.99256E-01	4.22376
2.99273E-01	4.22359
2.99295E-01	4.22331
2.99323E-01	4.22289
2.99340E-01	4.22259
2.99357E-01	4.22225
2.99396E-01	4.22137
2.99408E-01	4.22114
2.99416E-01	4.22099
2.99424E-01	4.22087
2.99430E-01	4.22081
2.99432E-01	4.22074
2.99440E-01	4.22056
2.99448E-01	4.2204
2.99455E-01	4.22026
2.99465E-01	4.2201
2.99480E-01	4.21989
2.99560E-01	4.21885
2.99590E-01	4.21847
2.99620E-01	4.21923
2.99700E-01	4.22127
2.99720E-01	4.22179
2.99730E-01	4.22206
2.99740E-01	4.22234
2.99750E-01	4.22262
2.99758E-01	4.22287
2.99767E-01	4.22313
2.99778E-01	4.22349
2.99795E-01	4.22404
3.00076E-01	4.23329
3.00110E-01	4.23441
3.00139E-01	4.2354
3.01818E-01	4.29188
3.02690E-01	4.32128
3.03880E-01	4.26301
3.08562E-01	4.03288
3.14570E-01	3.96678
3.31650E-01	3.77905
3.34510E-01	3.76337
3.48570E-01	3.68628
3.49620E-01	3.65381
3.52665E-01	3.56004
3.52694E-01	3.55915
3.52723E-01	3.55826
3.53292E-01	3.54126
3.53328E-01	3.54018
3.53350E-01	3.53955
3.53368E-01	3.53906
3.53370E-01	3.53899
3.53385E-01	3.54256
3.53577E-01	3.58837
3.53604E-01	3.59463
3.53621E-01	3.59881
3.53638E-01	3.60286
3.53662E-01	3.60874
3.53735E-01	3.62629
3.53769E-01	3.65599
3.53826E-01	3.75244
3.53841E-01	3.78061
3.53866E-01	3.82642
3.53882E-01	3.85697
3.53898E-01	3.88637
3.53920E-01	3.92876
3.54025E-01	4.12671
3.54054E-01	4.18209
3.54077E-01	4.2426
3.54094E-01	4.31514
3.54100E-01	4.35126
3.54112E-01	4.42648
3.54122E-01	4.512
3.54124E-01	4.52206
3.54146E-01	4.72766
3.54147E-01	4.74527
3.54171E-01	4.99524
3.54177E-01	5.06254
3.54195E-01	5.27936
3.54243E-01	5.91706
3.54260E-01	6.1247
3.54278E-01	6.28713
3.54295E-01	6.39214
3.54310E-01	6.44831
3.54317E-01	6.46148
3.54330E-01	6.48342
3.54340E-01	6.48793
3.54360E-01	6.46688
3.54370E-01	6.43635
3.54380E-01	6.38354
3.54387E-01	6.34723
3.54400E-01	6.24718
3.54412E-01	6.11789
3.54421E-01	6.0155
3.54438E-01	5.77569
3.54480E-01	5.0927
3.54492E-01	4.91248
3.54505E-01	4.76104
3.54518E-01	4.63949
3.54530E-01	4.54455
3.54530E-01	4.54214
3.54556E-01	4.38596
3.54590E-01	4.19795
3.54606E-01	4.10905
3.54612E-01	4.08017
3.54628E-01	4.00937
3.54632E-01	3.99202
3.54648E-01	3.93658
3.54651E-01	3.92893
3.54671E-01	3.88435
3.54765E-01	3.76165
3.54839E-01	3.67311
3.54870E-01	3.63557
3.54874E-01	3.6303
3.54901E-01	3.61308
3.54904E-01	3.61107
3.55005E-01	3.60448
3.55063E-01	3.60392
3.55073E-01	3.60392
3.55097E-01	3.60389
3.55112E-01	3.60383
3.55128E-01	3.60373
3.55151E-01	3.60351
3.55214E-01	3.60275
3.55331E-01	3.60132
3.55347E-01	3.60115
3.55362E-01	3.601
3.55370E-01	3.60095
3.55374E-01	3.60085
3.55386E-01	3.60059
3.55402E-01	3.60028
3.55435E-01	3.59969
3.55581E-01	3.59715
3.55597E-01	3.59687
3.55614E-01	3.59661
3.55626E-01	3.59643
3.55636E-01	3.59629
3.55648E-01	3.59614
3.55665E-01	3.59595
3.55700E-01	3.59559
3.56345E-01	3.58915
3.56368E-01	3.58892
3.56390E-01	3.58872
3.56419E-01	3.58845
3.57610E-01	3.57774
3.57650E-01	3.57739
3.59710E-01	3.55954
3.60783E-01	3.56196
3.62676E-01	3.56611
3.70015E-01	3.5822
3.70170E-01	3.58216
3.75480E-01	3.39819
3.75760E-01	3.40527
3.84580E-01	3.62831
3.92570E-01	3.5421
3.96360E-01	3.50101
3.96390E-01	3.50069
3.96468E-01	3.49987
3.97591E-01	3.48801
3.97630E-01	3.4876
3.97692E-01	3.48697
3.98566E-01	3.47806
3.98589E-01	3.47783
3.98605E-01	3.47769
3.98616E-01	3.4776
3.98628E-01	3.47751
3.98636E-01	3.47746
3.98652E-01	3.47738
3.98685E-01	3.47723
3.98864E-01	3.47649
3.98912E-01	3.47627
3.99140E-01	3.47519
3.99368E-01	3.47415
3.99400E-01	3.47399
3.99500E-01	3.47341
3.99575E-01	3.47296
3.99600E-01	3.47278
3.99635E-01	3.47247
3.99845E-01	3.47041
3.99862E-01	3.47023
3.99880E-01	3.47002
3.99911E-01	3.46961
4.00036E-01	3.4678
4.00068E-01	3.46733
4.00091E-01	3.46693
4.00130E-01	3.46621
4.00364E-01	3.46171
4.00421E-01	3.46059
4.00559E-01	3.45783
4.00579E-01	3.45743
4.00593E-01	3.45718
4.00609E-01	3.4569
4.00628E-01	3.4566
4.00656E-01	3.45618
4.00844E-01	3.45344
4.00872E-01	3.45303
4.00891E-01	3.45277
4.00906E-01	3.45257
4.00923E-01	3.45235
4.00946E-01	3.45208
4.01605E-01	3.44434
4.01628E-01	3.44408
4.01651E-01	3.44382
4.01684E-01	3.44346
4.01695E-01	3.44334
4.04330E-01	3.41494
4.07306E-01	3.38452
4.08280E-01	3.37457
4.28920E-01	3.24166
4.62310E-01	3.02639
4.93600E-01	2.94691
5.07290E-01	2.89103
5.19000E-01	2.84321
5.19250E-01	2.84871
5.26638E-01	3.01139
5.26675E-01	3.0122
5.26693E-01	3.0126
5.26766E-01	3.01424
5.28553E-01	3.05453
5.28590E-01	3.05534
5.28622E-01	3.05605
5.29021E-01	3.06456
5.29248E-01	3.06939
5.29280E-01	3.07009
5.29297E-01	3.07046
5.29348E-01	3.0716
5.29600E-01	3.0772
5.29647E-01	3.08561
5.30370E-01	3.37099
5.31013E-01	3.62478
5.31036E-01	3.64519
5.31060E-01	3.6842
5.31084E-01	3.74995
5.31109E-01	3.83522
5.31139E-01	3.95335
5.31171E-01	4.0795
5.31190E-01	4.1552
5.31212E-01	4.24138
5.31234E-01	4.32758
5.31401E-01	4.98766
5.31450E-01	5.19825
5.31505E-01	5.48288
5.31615E-01	6.09252
5.31642E-01	6.26567
5.31663E-01	6.42711
5.31684E-01	6.62916
5.31711E-01	6.95514
5.31835E-01	8.60284
5.31857E-01	8.90905
5.31890E-01	9.36184
5.31917E-01	9.73268
5.31922E-01	9.81314
5.31957E-01	10.3257
5.31977E-01	10.6632
5.31991E-01	10.9351
5.32004E-01	11.2675
5.32018E-01	11.6697
5.32051E-01	12.8168
5.32065E-01	13.2028
5.32078E-01	13.4889
5.32092E-01	13.6748
5.32105E-01	13.7828
5.32132E-01	13.8767
5.32273E-01	14.0685
5.32280E-01	14.0686
5.32307E-01	14.0127
5.32320E-01	13.9345
5.32342E-01	13.7234
5.32364E-01	13.4304
5.32408E-01	12.7456
5.32451E-01	12.0124
5.32517E-01	10.8105
5.32580E-01	9.62837
5.32670E-01	7.94291
5.32702E-01	7.37253
5.32723E-01	7.01948
5.32739E-01	6.78381
5.32755E-01	6.58263
5.32771E-01	6.41736
5.32787E-01	6.28132
5.32819E-01	6.05536
5.32840E-01	5.91759
5.32968E-01	5.09097
5.32999E-01	4.90681
5.33022E-01	4.79925
5.33059E-01	4.66695
5.33059E-01	4.66508
5.33100E-01	4.54342
5.33147E-01	4.40299
5.33363E-01	3.75409
5.33400E-01	3.66766
5.33431E-01	3.62193
5.33522E-01	3.54296
5.33631E-01	3.45631
5.33662E-01	3.43153
5.33709E-01	3.39433
5.34030E-01	3.13998
5.34069E-01	3.12465
5.34084E-01	3.1187
5.34100E-01	3.11721
5.34129E-01	3.11451
5.34276E-01	3.10104
5.34526E-01	3.07816
5.34548E-01	3.07615
5.34570E-01	3.07415
5.34592E-01	3.07217
5.34614E-01	3.07021
5.34745E-01	3.05846
5.36220E-01	2.92668
5.36411E-01	2.93171
5.36462E-01	2.93308
5.40250E-01	3.03418
5.42039E-01	3.0816
5.44983E-01	3.15964
5.45020E-01	3.16063
5.45101E-01	3.16279
5.49104E-01	3.26989
5.49223E-01	3.27906
5.50185E-01	3.43698
5.52020E-01	3.73781
5.55350E-01	4.45986
5.55750E-01	4.54668
5.57170E-01	5.08331
5.57440E-01	5.18534
5.59300E-01	6.21912
5.60470E-01	7.16059
5.62602E-01	9.8129
5.62650E-01	9.87334
5.62872E-01	10.149
5.63330E-01	10.7187
5.63880E-01	11.2153
5.63920E-01	11.2517
5.63939E-01	11.2691
5.64036E-01	11.3564
5.64240E-01	11.5411
5.65150E-01	11.8282
5.65930E-01	11.8997
5.66351E-01	11.7328
5.66390E-01	11.7175
5.66487E-01	11.6789
5.66612E-01	11.6293
5.67490E-01	11.0026
5.69270E-01	9.40771
5.71090E-01	7.66626
5.72649E-01	6.68024
5.72698E-01	6.64945
5.73015E-01	6.44932
5.73260E-01	6.29427
5.76120E-01	5.18488
5.78590E-01	4.56386
5.78860E-01	4.50523
5.81010E-01	4.03844
5.83310E-01	3.68288
5.83414E-01	3.68094
5.83712E-01	3.68118
5.83750E-01	3.68121
5.83785E-01	3.68125
5.84890E-01	3.68251
5.84941E-01	3.68257
5.84967E-01	3.68261
5.84970E-01	3.68261
5.84993E-01	3.68263
5.85028E-01	3.68267
5.85731E-01	3.68356
5.85813E-01	3.68983
5.85840E-01	3.70545
5.85877E-01	3.74894
5.85908E-01	3.80088
5.85934E-01	3.84383
5.85960E-01	3.88679
5.85984E-01	3.92725
5.86024E-01	3.99367
5.86025E-01	3.99494
5.86061E-01	4.0687
5.86089E-01	4.15349
5.86117E-01	4.27561
5.86135E-01	4.37361
5.86375E-01	5.78588
5.86412E-01	6.02244
5.86444E-01	6.27251
5.86523E-01	6.97175
5.86545E-01	7.12783
5.86567E-01	7.24507
5.86588E-01	7.32664
5.86617E-01	7.39747
5.86646E-01	7.42511
5.86668E-01	7.40051
5.86694E-01	7.32195
5.86727E-01	7.16471
5.86761E-01	6.96857
5.86787E-01	6.78175
5.86812E-01	6.55501
5.86905E-01	5.61326
5.86930E-01	5.38479
5.86951E-01	5.22067
5.86959E-01	5.16275
5.86984E-01	4.99412
5.86987E-01	4.96882
5.87015E-01	4.79448
5.87060E-01	4.50916
5.87074E-01	4.42197
5.87110E-01	4.2076
5.87131E-01	4.09871
5.87153E-01	4.01419
5.87174E-01	3.95314
5.87218E-01	3.86755
5.87361E-01	3.62179
5.87390E-01	3.5829
5.87435E-01	3.54328
5.87438E-01	3.54053
5.87469E-01	3.52216
5.87499E-01	3.50405
5.87556E-01	3.46993
5.87858E-01	3.28789
5.87896E-01	3.26512
5.87924E-01	3.248
5.87968E-01	3.22188
5.87972E-01	3.2193
5.88160E-01	3.09946
5.88259E-01	2.99746
5.88633E-01	2.58754
5.88662E-01	2.55646
5.88681E-01	2.53576
5.88690E-01	2.52542
5.88700E-01	2.51323
5.88719E-01	2.48886
5.88747E-01	2.45234
5.88983E-01	2.15187
5.89016E-01	2.10359
5.89039E-01	2.06278
5.89059E-01	2.01491
5.89087E-01	1.93367
5.89153E-01	1.72114
5.89172E-01	1.66926
5.89191E-01	1.62868
5.89209E-01	1.60119
5.89228E-01	1.58479
5.89256E-01	1.57188
5.89294E-01	1.5624
5.89312E-01	1.5612
5.89331E-01	1.56591
5.89350E-01	1.58006
5.89367E-01	1.60226
5.89384E-01	1.63252
5.89409E-01	1.68867
5.89434E-01	1.75551
5.89451E-01	1.80809
5.89468E-01	1.869
5.89485E-01	1.93821
5.89519E-01	2.09348
5.89561E-01	2.30061
5.89586E-01	2.43619
5.89603E-01	2.54019
5.89620E-01	2.66154
5.89637E-01	2.80259
5.89654E-01	2.96099
5.89688E-01	3.30771
5.89755E-01	4.01872
5.89778E-01	4.23634
5.89794E-01	4.38006
5.89809E-01	4.48975
5.89828E-01	4.60377
5.89856E-01	4.74214
5.89910E-01	4.97042
5.89912E-01	4.98103
5.89950E-01	5.11577
5.89978E-01	5.1856
5.90025E-01	5.25182
5.90081E-01	5.29839
5.90100E-01	5.30179
5.90135E-01	5.28494
5.90586E-01	4.77118
5.90932E-01	4.46123
5.91210E-01	4.22308
5.91494E-01	4.08049
5.91600E-01	4.02752
5.91672E-01	3.99165
5.91825E-01	3.91475
5.92030E-01	3.81865
5.93580E-01	3.64087
5.93854E-01	3.62137
5.93890E-01	3.61883
5.93926E-01	3.61628
5.97450E-01	3.36663
5.98418E-01	3.3586
5.98454E-01	3.3583
5.98472E-01	3.35815
5.98490E-01	3.35801
5.98512E-01	3.35784
5.98533E-01	3.35768
5.98620E-01	3.35704
6.00589E-01	3.34251
6.00622E-01	3.34228
6.00643E-01	3.34214
6.00659E-01	3.34205
6.00676E-01	3.34197
6.00680E-01	3.34195
6.00697E-01	3.34828
6.00741E-01	3.36411
6.01135E-01	3.50841
6.01192E-01	3.53842
6.01195E-01	3.5411
6.01228E-01	3.56822
6.01249E-01	3.58633
6.01267E-01	3.60116
6.01287E-01	3.61849
6.01315E-01	3.64162
6.01547E-01	3.83728
6.01590E-01	3.88879
6.01641E-01	3.98235
6.01672E-01	4.05402
6.01700E-01	4.11514
6.01700E-01	4.11609
6.01725E-01	4.19185
6.01742E-01	4.26242
6.01759E-01	4.35419
6.01770E-01	4.42932
6.01776E-01	4.46687
6.01835E-01	4.92436
6.01852E-01	5.03565
6.01874E-01	5.14874
6.01888E-01	5.19995
6.01915E-01	5.26864
6.01936E-01	5.29316
6.01942E-01	5.29457
6.01956E-01	5.2837
6.01970E-01	5.25109
6.01984E-01	5.19504
6.02004E-01	5.0723
6.02039E-01	4.81169
6.02066E-01	4.6044
6.02087E-01	4.47336
6.02108E-01	4.37185
6.02128E-01	4.29646
6.02162E-01	4.20154
6.02225E-01	4.05018
6.02260E-01	3.96534
6.02305E-01	3.85613
6.02369E-01	3.70129
6.02396E-01	3.64655
6.02422E-01	3.61123
6.02457E-01	3.58614
6.02695E-01	3.51702
6.02725E-01	3.50827
6.02756E-01	3.49906
6.02805E-01	3.48453
6.03227E-01	3.35808
6.03276E-01	3.3434
6.03357E-01	3.31874
6.03527E-01	3.26708
6.03780E-01	3.19345
6.03900E-01	3.15857
6.04015E-01	3.1555
6.04206E-01	3.15042
6.04235E-01	3.14966
6.04265E-01	3.14892
6.04295E-01	3.1482
6.04655E-01	3.13986
6.04685E-01	3.13917
6.04700E-01	3.13883
6.04715E-01	3.13851
6.04730E-01	3.13819
6.04744E-01	3.1379
6.04759E-01	3.13762
6.04778E-01	3.13727
6.04806E-01	3.13675
6.05283E-01	3.12815
6.05311E-01	3.12764
6.05331E-01	3.1273
6.05347E-01	3.12701
6.05369E-01	3.12663
6.05399E-01	3.12614
6.10940E-01	3.03369
6.12880E-01	3.009
6.24140E-01	2.86575
6.30030E-01	2.79095
6.39920E-01	2.71366
6.45675E-01	3.0043
6.51430E-01	3.04183
6.66460E-01	2.66995
6.74190E-01	2.68875
6.83930E-01	2.7123
6.91380E-01	2.41911
6.98830E-01	2.62574
7.24160E-01	2.49615
7.34160E-01	2.41682
7.36300E-01	2.39987
7.40080E-01	2.45341
7.46380E-01	2.60322
7.48455E-01	2.5995
7.49285E-01	2.58667
7.53020E-01	2.50797
7.58210E-01	2.4447
7.61020E-01	2.41045
7.62055E-01	2.41569
7.63090E-01	2.43362
7.64252E-01	2.45812
7.64288E-01	2.45888
7.64325E-01	2.45967
7.64376E-01	2.46076
7.65059E-01	2.47547
7.65097E-01	2.47629
7.65120E-01	2.47676
7.65148E-01	2.47736
7.65224E-01	2.47894
7.66273E-01	2.50073
7.66311E-01	2.50153
7.66330E-01	2.50193
7.66362E-01	2.50262
7.66417E-01	2.50377
7.69057E-01	2.56002
7.69100E-01	2.56094
7.69206E-01	2.56318
7.69300E-01	2.56516
7.70159E-01	2.59196
7.70195E-01	2.59306
7.70221E-01	2.5939
7.70247E-01	2.59472
7.70263E-01	2.59526
7.70296E-01	2.59634
7.71351E-01	2.63109
7.71719E-01	2.64317
7.71765E-01	2.64466
7.71794E-01	2.64558
7.71835E-01	2.64683
7.71940E-01	2.65003
7.73143E-01	2.61472
7.73416E-01	2.60677
7.74920E-01	2.56289
7.75216E-01	2.56678
7.75256E-01	2.56733
7.75291E-01	2.5678
7.75334E-01	2.56839
7.75398E-01	2.56928
7.77540E-01	2.59909
7.88140E-01	3.02605
7.90960E-01	3.22124
7.93780E-01	3.54935
7.95137E-01	3.79887
7.95180E-01	3.80673
7.95265E-01	3.82245
7.96600E-01	4.06807
7.98476E-01	4.55213
7.98920E-01	4.66657
7.99160E-01	4.72843
8.00015E-01	4.98169
8.01042E-01	5.28576
8.01076E-01	5.2959
8.01110E-01	5.30605
8.01140E-01	5.3151
8.01201E-01	5.33322
8.02938E-01	5.84988
8.03060E-01	5.88614
8.03222E-01	5.93456
8.04319E-01	6.2614
8.04360E-01	6.27349
8.04525E-01	6.32252
8.04649E-01	6.35927
8.04690E-01	6.3715
8.04753E-01	6.39026
8.05261E-01	6.54012
8.05340E-01	6.56351
8.05388E-01	6.57751
8.05640E-01	6.65157
8.06672E-01	6.91113
8.06704E-01	6.91912
8.06736E-01	6.92726
8.06769E-01	6.93556
8.07376E-01	7.08931
8.07737E-01	7.18073
8.07787E-01	7.19328
8.07870E-01	7.21445
8.08280E-01	7.31854
8.10920E-01	7.83302
8.13560E-01	8.14277
8.16200E-01	8.19566
8.16310E-01	8.1882
8.17738E-01	8.09124
8.21120E-01	7.61908
8.24510E-01	7.04384
8.30100E-01	6.09572
8.33900E-01	5.36747
8.35800E-01	5.04496
8.37700E-01	4.81383
8.39600E-01	4.72135
8.41755E-01	4.80486
8.41806E-01	4.80683
8.41840E-01	4.80815
8.41874E-01	4.80949
8.41977E-01	4.81355
8.43140E-01	4.85934
8.44320E-01	4.87233
8.44724E-01	4.8425
8.44785E-01	4.83798
8.44800E-01	4.83684
8.45136E-01	4.81184
8.45991E-01	4.74805
8.46232E-01	4.70843
8.46720E-01	4.62857
8.47159E-01	4.55655
8.50175E-01	4.06141
8.50216E-01	4.05466
8.50251E-01	4.04895
8.50260E-01	4.0475
8.50293E-01	4.04416
8.50315E-01	4.04205
8.52320E-01	3.84146
8.55160E-01	3.72875
8.60440E-01	3.65711
8.69271E-01	3.38833
8.69302E-01	3.38737
8.69334E-01	3.38642
8.69355E-01	3.38579
8.69376E-01	3.38516
8.69419E-01	3.38393
8.70200E-01	3.36113
8.71828E-01	3.33188
8.71870E-01	3.3311
8.71918E-01	3.33019
8.71934E-01	3.32988
8.73952E-01	3.29083
8.74000E-01	3.28989
8.74048E-01	3.28892
8.74144E-01	3.28691
8.75890E-01	3.25037
8.75922E-01	3.2497
8.75946E-01	3.24921
8.75962E-01	3.24888
8.75978E-01	3.24855
8.75995E-01	3.24822
8.76020E-01	3.24773
8.76071E-01	3.24676
8.79724E-01	3.17628
8.80260E-01	3.16594
8.85000E-01	3.07478
8.95280E-01	2.73023
8.98888E-01	2.67592
8.99000E-01	2.67424
9.03978E-01	2.68288
9.04900E-01	2.76594
9.05360E-01	2.86376
9.05400E-01	2.87234
9.05438E-01	2.88052
9.05493E-01	2.89221
9.05740E-01	2.94485
9.06580E-01	3.22627
9.07420E-01	3.60549
9.07723E-01	3.7761
9.07760E-01	3.79666
9.07863E-01	3.8548
9.08260E-01	4.07767
9.09100E-01	4.63703
9.10300E-01	5.51201
9.10900E-01	5.88633
9.11018E-01	5.93851
9.11070E-01	5.96133
9.11152E-01	5.99763
9.11500E-01	6.15089
9.12100E-01	6.25619
9.12600E-01	6.19776
9.13100E-01	6.03012
9.14600E-01	5.2566
9.15680E-01	4.80654
9.16299E-01	4.63973
9.16365E-01	4.62183
9.16416E-01	4.60823
9.16760E-01	4.51551
9.17840E-01	4.34573
9.18920E-01	4.25808
9.22480E-01	4.14162
9.26200E-01	4.08846
9.31437E-01	4.14778
9.44230E-01	4.59057
9.44820E-01	4.61101
9.48675E-01	4.77768
9.48744E-01	4.78065
9.52933E-01	4.9627
9.53000E-01	4.9656
9.53067E-01	4.96848
9.55681E-01	5.08037
9.55732E-01	5.08253
9.55782E-01	5.08469
9.58020E-01	5.18135
9.64680E-01	5.34778
9.70093E-01	5.36066
9.70100E-01	5.36068
9.70160E-01	5.35942
9.70226E-01	5.35804
9.74051E-01	5.27879
9.74405E-01	5.2714
9.75776E-01	5.24277
9.75820E-01	5.24185
9.75930E-01	5.23952
9.77356E-01	5.20922
9.77502E-01	5.2061
9.78654E-01	5.18147
9.80365E-01	5.13648
9.80445E-01	5.13374
9.80500E-01	5.13188
9.80550E-01	5.13018
9.84790E-01	4.98727
9.98240E-01	4.53463
9.99300E-01	4.49892
1.00050E+00	4.38648
1.00100E+00	4.34416
1.00820E+00	4.20027
1.01303E+00	4.06922
1.01307E+00	4.06805
1.01311E+00	4.06693
1.01315E+00	4.06592
1.01330E+00	4.06192
1.01795E+00	3.93783
1.01805E+00	3.93515
1.01945E+00	3.89753
1.01947E+00	3.89686
1.01952E+00	3.89562
1.01962E+00	3.89282
1.02035E+00	3.87257
1.02041E+00	3.87086
1.02048E+00	3.86915
1.02202E+00	3.82544
1.02206E+00	3.8243
1.02208E+00	3.82373
1.02210E+00	3.82316
1.02212E+00	3.82257
1.02214E+00	3.82198
1.02219E+00	3.82081
1.02223E+00	3.81965
1.02960E+00	3.61969
1.03200E+00	3.61432
1.03825E+00	3.72881
1.03850E+00	3.73909
1.03903E+00	3.77939
1.03907E+00	3.78266
1.03912E+00	3.78593
1.03918E+00	3.79086
1.04000E+00	3.8535
1.04240E+00	4.21721
1.04320E+00	4.295
1.04400E+00	4.30271
1.04404E+00	4.29851
1.04409E+00	4.29215
1.04414E+00	4.286
1.04435E+00	4.26159
1.04513E+00	4.16886
1.04550E+00	4.09621
1.04700E+00	3.77855
1.04724E+00	3.73644
1.04728E+00	3.72917
1.04732E+00	3.72192
1.04736E+00	3.71466
1.04840E+00	3.53102
1.04980E+00	3.36054
1.05120E+00	3.25616
1.05260E+00	3.20718
1.05394E+00	3.20252
1.05400E+00	3.20232
1.05460E+00	3.21173
1.05720E+00	3.2526
1.05860E+00	3.22811
1.06160E+00	3.10911
1.06540E+00	3.08304
1.07480E+00	2.96085
1.08263E+00	2.91313
1.08268E+00	2.91285
1.08271E+00	2.91267
1.08274E+00	2.9125
1.08278E+00	2.91224
1.08584E+00	2.89522
1.08588E+00	2.89496
1.08591E+00	2.89481
1.08597E+00	2.89444
1.09025E+00	2.86669
1.09030E+00	2.86636
1.09035E+00	2.86608
1.09042E+00	2.86562
1.10420E+00	2.78152
1.11680E+00	2.75154
1.12360E+00	2.69048
1.13140E+00	2.54109
1.14174E+00	2.23718
1.14180E+00	2.2354
1.14188E+00	2.23366
1.14440E+00	2.17627
1.14670E+00	2.14973
1.15000E+00	2.1119
1.15103E+00	2.07309
1.15107E+00	2.07179
1.15110E+00	2.07047
1.15115E+00	2.0686
1.15129E+00	2.06293
1.15200E+00	2.03533
1.15280E+00	1.97614
1.15286E+00	1.97164
1.15289E+00	1.96894
1.15292E+00	1.96716
1.15294E+00	1.96537
1.15299E+00	1.96182
1.15340E+00	1.93169
1.15620E+00	1.68709
1.15723E+00	1.62553
1.15728E+00	1.62262
1.15733E+00	1.61968
1.15740E+00	1.61521
1.15760E+00	1.6033
1.15900E+00	1.58298
1.16000E+00	1.6201
1.16100E+00	1.69811
1.16200E+00	1.81072
1.16300E+00	1.95162
1.16365E+00	2.06011
1.16370E+00	2.06845
1.16377E+00	2.08035
1.16580E+00	2.41768
1.16700E+00	2.55952
1.16820E+00	2.60492
1.16944E+00	2.56639
1.16975E+00	2.53979
1.16980E+00	2.53576
1.16988E+00	2.52918
1.17240E+00	2.31674
1.17300E+00	2.26457
1.17420E+00	2.18868
1.17660E+00	2.11261
1.17980E+00	2.07681
1.18800E+00	1.98525
1.19100E+00	2.03561
1.19400E+00	2.23033
1.19700E+00	2.63815
1.20000E+00	3.32724
1.20300E+00	4.21617
1.20400E+00	4.44782
1.20500E+00	4.59584
1.20620E+00	4.63676
1.20740E+00	4.55519
1.20860E+00	4.39159
1.21200E+00	3.84107
1.21500E+00	3.53353
1.21960E+00	3.20784
1.22500E+00	2.91721
1.23280E+00	2.58145
1.23540E+00	2.43807
1.23800E+00	2.25359
1.24280E+00	1.8196
1.24520E+00	1.62243
1.24760E+00	1.48732
1.25000E+00	1.45091
1.25180E+00	1.50751
1.25360E+00	1.63909
1.25540E+00	1.84397
1.25720E+00	2.12105
1.25900E+00	2.46858
1.26180E+00	3.09462
1.26320E+00	3.37336
1.26460E+00	3.57743
1.26600E+00	3.66844
1.26703E+00	3.64654
1.26900E+00	3.46441
1.27100E+00	3.23375
1.27260E+00	3.11491
1.27420E+00	3.05947
1.27580E+00	3.04823
1.28120E+00	3.09252
1.28560E+00	3.06028
1.30120E+00	2.84678
1.31240E+00	2.76514
1.31870E+00	2.75831
1.32600E+00	2.75088
1.34440E+00	2.74592
1.37320E+00	2.55928
1.38360E+00	2.53555
1.39000E+00	2.42279
1.39280E+00	2.37346
1.39540E+00	2.39257
1.39800E+00	2.49465
1.39940E+00	2.59411
1.40080E+00	2.72965
1.40220E+00	2.90409
1.40360E+00	3.12073
1.40500E+00	3.38235
1.40800E+00	3.99816
1.40900E+00	4.14344
1.41000E+00	4.21913
1.41120E+00	4.19884
1.41240E+00	4.08057
1.41600E+00	3.49582
1.41800E+00	3.24971
1.42000E+00	3.09825
1.42200E+00	3.01289
1.42840E+00	2.85651
1.43200E+00	2.74422
1.43680E+00	2.64797
1.44160E+00	2.61038
1.45600E+00	2.59389
1.46120E+00	2.55626
1.46380E+00	2.56175
1.46640E+00	2.60675
1.46980E+00	2.75435
1.47140E+00	2.87855
1.47300E+00	3.06488
1.47580E+00	3.51471
1.47720E+00	3.70303
1.47860E+00	3.79594
1.47998E+00	3.7423
1.48120E+00	3.55554
1.48300E+00	3.1849
1.48440E+00	2.95427
1.48580E+00	2.79383
1.48720E+00	2.68837
1.49000E+00	2.57839
1.49320E+00	2.51179
1.49960E+00	2.46024
1.50000E+00	2.46065
1.51060E+00	2.47096
1.51360E+00	2.51233
1.51560E+00	2.5422
1.51900E+00	2.66664
1.52100E+00	2.79103
1.52300E+00	2.9815
1.52660E+00	3.41396
1.52780E+00	3.48616
1.52892E+00	3.47563
1.52930E+00	3.44996
1.52980E+00	3.40704
1.53140E+00	3.18004
1.53300E+00	2.9256
1.53420E+00	2.77719
1.53540E+00	2.67045
1.53780E+00	2.5448
1.54240E+00	2.43071
1.54920E+00	2.36286
1.56878E+00	2.39843
1.57240E+00	2.44814
1.57420E+00	2.51007
1.57600E+00	2.60942
1.57960E+00	2.88547
1.58080E+00	2.95747
1.58200E+00	2.99702
1.58600E+00	2.9547
1.58700E+00	2.96585
1.58820E+00	3.0243
1.58940E+00	3.14054
1.59060E+00	3.32107
1.59180E+00	3.57251
1.59300E+00	3.90108
1.59540E+00	4.69375
1.59620E+00	4.91571
1.59700E+00	5.07432
1.59820E+00	5.16309
1.59940E+00	5.1047
1.60060E+00	4.94835
1.60300E+00	4.54295
1.60460E+00	4.34095
1.60620E+00	4.21387
1.60940E+00	4.10795
1.61580E+00	4.08144
1.61820E+00	4.13907
1.62060E+00	4.27412
1.62380E+00	4.61766
1.62840E+00	5.27751
1.63120E+00	5.54694
1.63400E+00	5.64243
1.63680E+00	5.53091
1.63960E+00	5.23013
1.64300E+00	4.69426
1.64400E+00	4.58131
1.64500E+00	4.542
1.64601E+00	4.60795
1.64680E+00	4.74722
1.64840E+00	5.20116
1.65120E+00	6.10665
1.65300E+00	6.47725
1.65500E+00	6.54227
1.65700E+00	6.30429
1.65900E+00	5.87103
1.66300E+00	4.85239
1.66520E+00	4.42718
1.66740E+00	4.12346
1.66960E+00	3.90531
1.67920E+00	3.20433
1.68280E+00	3.01171
1.69040E+00	2.68958
1.69680E+00	2.47233
1.70000E+00	2.38299
1.70680E+00	2.23572
1.71321E+00	2.14045
1.71360E+00	2.13469
1.72040E+00	2.06575
1.73738E+00	1.93823
1.75320E+00	1.81944
1.77400E+00	1.74994
1.78080E+00	1.70821
1.78420E+00	1.70184
1.78760E+00	1.72047
1.79100E+00	1.77529
1.80000E+00	2.04058
1.80307E+00	2.09553
1.80315E+00	2.09556
1.80594E+00	2.09497
1.81240E+00	1.95723
1.81400E+00	1.94952
1.81640E+00	1.99492
1.81880E+00	2.10398
1.82120E+00	2.26802
1.82360E+00	2.47695
1.82740E+00	2.87705
1.83160E+00	3.40234
1.83580E+00	4.03205
1.83860E+00	4.5507
1.84200E+00	5.34311
1.84290E+00	5.5754
1.84340E+00	5.71087
1.84390E+00	5.84335
1.84800E+00	6.91953
1.85080E+00	7.52716
1.85320E+00	7.8357
1.85390E+00	7.86068
1.85560E+00	7.77379
1.85720E+00	7.53708
1.85770E+00	7.4276
1.86200E+00	6.46082
1.86290E+00	6.29143
1.86460E+00	5.97236
1.86730E+00	5.59292
1.86980E+00	5.31843
1.87740E+00	4.57377
1.88700E+00	3.42522
1.89000E+00	3.09237
1.89300E+00	2.80462
1.89600E+00	2.57986
1.89760E+00	2.50201
1.89900E+00	2.43562
1.90200E+00	2.38978
1.90280E+00	2.40122
1.90320E+00	2.41068
1.90440E+00	2.43292
1.90680E+00	2.54348
1.90920E+00	2.71423
1.91160E+00	2.93819
1.91400E+00	3.20831
1.91920E+00	3.86958
1.92100E+00	4.06892
1.92180E+00	4.15577
1.92440E+00	4.35182
1.92700E+00	4.41263
1.92925E+00	4.33495
1.93600E+00	3.91085
1.93900E+00	3.79171
1.94200E+00	3.71984
1.94360E+00	3.71033
1.94800E+00	3.68634
1.95140E+00	3.71707
1.95480E+00	3.78624
1.95820E+00	3.9018
1.96160E+00	4.07105
1.96980E+00	4.65492
1.97140E+00	4.71406
1.97180E+00	4.71451
1.97220E+00	4.71411
1.97290E+00	4.71308
1.97480E+00	4.62131
1.97660E+00	4.4556
1.98200E+00	3.77547
1.98520E+00	3.433
1.98840E+00	3.17323
1.99160E+00	2.97857
1.99480E+00	2.83114
1.99730E+00	2.74244
2.00000E+00	2.64733
2.01000E+00	2.44011
2.01400E+00	2.37985
2.02480E+00	2.15137
2.03280E+00	2.00474
2.03920E+00	1.88784
2.04400E+00	1.84832
2.04640E+00	1.85898
2.04880E+00	1.8911
2.04930E+00	1.90287
2.05360E+00	2.01068
2.05800E+00	2.16303
2.06080E+00	2.25939
2.06240E+00	2.28309
2.06400E+00	2.27629
2.06560E+00	2.23169
2.07010E+00	2.03149
2.07025E+00	2.02659
2.07040E+00	2.02039
2.07200E+00	1.9778
2.07360E+00	1.98337
2.07460E+00	1.98929
2.07720E+00	2.09781
2.07980E+00	2.29262
2.08240E+00	2.56253
2.08500E+00	2.89644
2.08660E+00	3.12835
2.08900E+00	3.47544
2.09100E+00	3.73601
2.09300E+00	3.93678
2.09440E+00	4.01683
2.09500E+00	4.04776
2.09680E+00	4.05499
2.09870E+00	3.97597
2.10080E+00	3.89044
2.10234E+00	3.82761
2.10400E+00	3.78797
2.10560E+00	3.81082
2.10640E+00	3.82472
2.11360E+00	4.17985
2.11520E+00	4.19937
2.11600E+00	4.20691
2.11780E+00	4.14961
2.12120E+00	3.90216
2.12130E+00	3.89236
2.12760E+00	3.3126
2.13280E+00	2.95215
2.13420E+00	2.88366
2.13800E+00	2.70147
2.14240E+00	2.56204
2.14680E+00	2.48014
2.15120E+00	2.44775
2.15570E+00	2.45775
2.16280E+00	2.5406
2.16320E+00	2.5474
2.17056E+00	2.714
2.17360E+00	2.78278
2.17495E+00	2.78766
2.17720E+00	2.75604
2.17930E+00	2.6862
2.18600E+00	2.46153
2.19320E+00	2.35739
2.19490E+00	2.29029
2.19700E+00	2.20788
2.19800E+00	2.20245
2.20000E+00	2.26214
2.20200E+00	2.34745
2.20420E+00	2.39615
2.21080E+00	2.38774
2.21220E+00	2.40606
2.21307E+00	2.42094
2.21322E+00	2.42657
2.21540E+00	2.51
2.21660E+00	2.57753
2.22038E+00	2.78413
2.22260E+00	2.90557
2.22440E+00	2.9613
2.22500E+00	2.97729
2.22680E+00	2.98327
2.22960E+00	2.9138
2.23040E+00	2.8915
2.23400E+00	2.71482
2.23560E+00	2.62592
2.24000E+00	2.38559
2.24340E+00	2.19989
2.24600E+00	2.08828
2.24820E+00	2.01796
2.24950E+00	1.99378
2.25260E+00	1.93866
2.25700E+00	1.93137
2.25900E+00	1.95374
2.26080E+00	1.97579
2.26460E+00	2.0667
2.26860E+00	2.21416
2.27220E+00	2.3919
2.27550E+00	2.59844
2.27600E+00	2.62828
2.28000E+00	2.91427
2.28330E+00	3.1502
2.28440E+00	3.22779
2.28720E+00	3.37756
2.29000E+00	3.46424
2.29280E+00	3.46524
2.29340E+00	3.46519
2.29680E+00	3.37291
2.30020E+00	3.22016
2.30500E+00	2.96846
2.30700E+00	2.86433
2.31200E+00	2.66341
2.31530E+00	2.57338
2.31700E+00	2.52707
2.32200E+00	2.43844
2.33140E+00	2.35004
2.33900E+00	2.27915
2.34500E+00	2.25262
2.34853E+00	2.27588
2.34924E+00	2.28368
2.35630E+00	2.42232
2.36260E+00	2.54729
2.36600E+00	2.67997
2.37000E+00	2.87044
2.37040E+00	2.88402
2.37200E+00	2.93255
2.37400E+00	2.94509
2.37545E+00	2.91383
2.37690E+00	2.84657
2.37880E+00	2.7514
2.38200E+00	2.55438
2.38720E+00	2.31875
2.38780E+00	2.30308
2.39240E+00	2.19257
2.39760E+00	2.14175
2.40290E+00	2.13449
2.40800E+00	2.12788
2.41840E+00	2.06077
2.42570E+00	1.99497
2.43400E+00	1.92113
2.43720E+00	1.91127
2.44040E+00	1.93581
2.44190E+00	1.97601
2.44360E+00	2.02127
2.44680E+00	2.1938
2.45000E+00	2.47985
2.45480E+00	3.06729
2.45640E+00	3.23335
2.45800E+00	3.3489
2.45930E+00	3.39179
2.45960E+00	3.39923
2.46120E+00	3.3946
2.46250E+00	3.34888
2.46781E+00	3.16559
2.47100E+00	3.10248
2.47380E+00	3.09364
2.47660E+00	3.12683
2.47695E+00	3.13424
2.47850E+00	3.17938
2.48220E+00	3.28734
2.48530E+00	3.43851
2.48820E+00	3.58384
2.49140E+00	3.81378
2.49390E+00	4.04867
2.49700E+00	4.33791
2.49800E+00	4.39556
2.50000E+00	4.40424
2.50080E+00	4.40766
2.50366E+00	4.24013
2.50690E+00	3.91069
2.51200E+00	3.39211
2.51210E+00	3.38525
2.51347E+00	3.29158
2.51480E+00	3.19999
2.51760E+00	3.08593
2.52040E+00	3.03089
2.52860E+00	3.0231
2.55140E+00	3.00389
2.56540E+00	2.9921
2.57840E+00	2.9805
2.58740E+00	2.973
2.59900E+00	2.9293
2.60580E+00	2.90289
2.61700E+00	2.79876
2.62290E+00	2.71942
2.62780E+00	2.65416
2.63340E+00	2.6017
2.63862E+00	2.58871
2.64100E+00	2.60781
2.64400E+00	2.63332
2.65600E+00	2.87051
2.65900E+00	2.89764
2.66070E+00	2.89627
2.66125E+00	2.89244
2.66200E+00	2.89017
2.66800E+00	2.78181
2.67100E+00	2.69039
2.67280E+00	2.62663
2.67880E+00	2.41324
2.67960E+00	2.40419
2.68120E+00	2.38942
2.68390E+00	2.42262
2.69200E+00	2.59659
2.69800E+00	2.66665
2.69930E+00	2.66141
2.70360E+00	2.64075
2.71279E+00	2.47694
2.71300E+00	2.47078
2.71410E+00	2.45348
2.71760E+00	2.39107
2.72840E+00	2.26094
2.73600E+00	2.11459
2.73800E+00	2.11401
2.73852E+00	2.11561
2.74080E+00	2.1483
2.74520E+00	2.24074
2.74800E+00	2.29959
2.75120E+00	2.31741
2.76000E+00	2.25007
2.76400E+00	2.21943
2.76460E+00	2.22225
2.76920E+00	2.26279
2.77440E+00	2.38317
2.78000E+00	2.55829
2.78240E+00	2.57308
2.78880E+00	2.47691
2.78900E+00	2.47284
2.79200E+00	2.42735
2.79600E+00	2.41741
2.80000E+00	2.48061
2.80860E+00	2.6165
2.80896E+00	2.62495
2.82000E+00	2.74756
2.82040E+00	2.75201
2.82620E+00	2.8459
2.82750E+00	2.87874
2.83200E+00	2.99536
2.84270E+00	3.39841
2.84385E+00	3.43985
2.84500E+00	3.4827
2.85060E+00	3.62619
2.85410E+00	3.66977
2.85602E+00	3.69078
2.86300E+00	3.66023
2.86390E+00	3.63793
2.86700E+00	3.55418
2.87100E+00	3.34998
2.87680E+00	2.95307
2.87900E+00	2.80248
2.88160E+00	2.66316
2.88420E+00	2.55517
2.88890E+00	2.42349
2.88940E+00	2.41044
2.90340E+00	2.19236
2.91020E+00	2.04681
2.91160E+00	2.03833
2.91307E+00	2.05403
2.91630E+00	2.14528
2.91820E+00	2.19884
2.92700E+00	2.31453
2.93540E+00	2.56514
2.93820E+00	2.61427
2.93900E+00	2.61284
2.94000E+00	2.60906
2.94100E+00	2.60527
2.94306E+00	2.5504
2.94700E+00	2.36447
2.95100E+00	2.13726
2.95600E+00	1.90005
2.96100E+00	1.72948
2.96550E+00	1.62861
2.96600E+00	1.61817
2.97100E+00	1.55854
2.97600E+00	1.54321
2.98040E+00	1.56119
2.98480E+00	1.60758
2.98530E+00	1.61581
2.98920E+00	1.68234
2.99360E+00	1.78564
3.00000E+00	1.98757
3.00100E+00	2.01909
3.00400E+00	2.22025
3.00700E+00	2.38347
3.01000E+00	2.50778
3.01300E+00	2.59267
3.01800E+00	2.64743
3.02200E+00	2.61811
3.02600E+00	2.53374
3.03260E+00	2.34299
3.03480E+00	2.30384
3.03700E+00	2.2956
3.04200E+00	2.37931
3.04210E+00	2.38028
3.04500E+00	2.42934
3.04755E+00	2.42116
3.05265E+00	2.35303
3.05520E+00	2.31811
3.06000E+00	2.32339
3.06385E+00	2.3758
3.06390E+00	2.37753
3.06560E+00	2.39906
3.06700E+00	2.40252
3.07000E+00	2.36235
3.07900E+00	2.08224
3.08200E+00	2.02962
3.08450E+00	2.03489
3.08500E+00	2.03744
3.08800E+00	2.10044
3.09100E+00	2.20545
3.09400E+00	2.33994
3.10300E+00	2.78937
3.10510E+00	2.87041
3.10555E+00	2.89027
3.10600E+00	2.90762
3.10900E+00	2.98547
3.11200E+00	3.00829
3.11500E+00	2.96943
3.11650E+00	2.93228
3.12400E+00	2.74156
3.12706E+00	2.73173
3.13100E+00	2.82819
3.13490E+00	3.00811
3.13695E+00	3.09957
3.13900E+00	3.19287
3.14300E+00	3.3217
3.14700E+00	3.32281
3.15000E+00	3.20973
3.15300E+00	3.02403
3.15900E+00	2.58779
3.16200E+00	2.41368
3.16440E+00	2.32493
3.16680E+00	2.27625
3.16920E+00	2.25528
3.17060E+00	2.25225
3.17600E+00	2.24227
3.17720E+00	2.24006
3.17820E+00	2.23098
3.18000E+00	2.21466
3.18360E+00	2.18201
3.18383E+00	2.17861
3.18680E+00	2.1344
3.19720E+00	1.93275
3.20000E+00	1.9093
3.20040E+00	1.90595
3.20100E+00	1.90959
3.20360E+00	1.92919
3.21792E+00	2.24723
3.21940E+00	2.29607
3.22200E+00	2.38501
3.22875E+00	2.65023
3.23000E+00	2.69949
3.23130E+00	2.73833
3.23400E+00	2.81712
3.23620E+00	2.84603
3.23800E+00	2.86722
3.24000E+00	2.84424
3.24280E+00	2.81205
3.24760E+00	2.66236
3.25720E+00	2.26206
3.26000E+00	2.17011
3.26200E+00	2.10442
3.26330E+00	2.08221
3.26680E+00	2.02651
3.27000E+00	2.01727
3.27340E+00	2.03823
3.28000E+00	2.1259
3.28360E+00	2.17371
3.28700E+00	2.20169
3.29040E+00	2.19855
3.29200E+00	2.19633
3.29669E+00	2.15278
3.30000E+00	2.11046
3.30700E+00	2.02104
3.31200E+00	1.98332
3.31843E+00	1.99277
3.32000E+00	2.00476
3.32670E+00	2.05597
3.34000E+00	2.15843
3.34560E+00	2.20156
3.35120E+00	2.27606
3.35500E+00	2.32661
3.36000E+00	2.40079
3.36110E+00	2.41712
3.36500E+00	2.47449
3.37000E+00	2.5143
3.37500E+00	2.50858
3.38000E+00	2.44259
3.38138E+00	2.42445
3.39200E+00	2.24139
3.39920E+00	2.19416
3.40454E+00	2.21085
3.40530E+00	2.21829
3.41260E+00	2.29774
3.42000E+00	2.43405
3.42040E+00	2.44142
3.42700E+00	2.60256
3.42870E+00	2.6228
3.42980E+00	2.63437
3.43540E+00	2.60691
3.44620E+00	2.42604
3.44690E+00	2.41181
3.44860E+00	2.38574
3.45460E+00	2.28523
3.46260E+00	2.21812
3.47066E+00	2.21376
3.47228E+00	2.21584
3.47550E+00	2.23373
3.49140E+00	2.3228
3.49500E+00	2.35624
3.50520E+00	2.45141
3.51180E+00	2.43839
3.51840E+00	2.35804
3.52600E+00	2.26615
3.53400E+00	2.22003
3.53541E+00	2.21214
3.54900E+00	2.19187
3.56220E+00	2.11611
3.57419E+00	1.99674
3.57430E+00	1.99516
3.58960E+00	1.84297
3.59720E+00	1.73743
3.60380E+00	1.60285
3.61500E+00	1.33518
3.61900E+00	1.26588
3.62300E+00	1.22546
3.62360E+00	1.22471
3.62694E+00	1.22063
3.63700E+00	1.28074
3.63800E+00	1.28317
3.64300E+00	1.29529
3.66431E+00	1.27824
3.67400E+00	1.25811
3.67440E+00	1.25887
3.68000E+00	1.27292
3.68298E+00	1.29987
3.68680E+00	1.35852
3.69820E+00	1.59264
3.70000E+00	1.62015
3.70200E+00	1.65072
3.70800E+00	1.69019
3.71990E+00	1.67199
3.72000E+00	1.6721
3.72600E+00	1.67852
3.73200E+00	1.73638
3.73800E+00	1.86621
3.74900E+00	2.1982
3.75000E+00	2.22838
3.75240E+00	2.29189
3.75420E+00	2.33925
3.75520E+00	2.36557
3.75600E+00	2.38663
3.76000E+00	2.4492
3.76200E+00	2.48049
3.76825E+00	2.48489
3.77450E+00	2.4336
3.79384E+00	2.2622
3.79660E+00	2.24263
3.80000E+00	2.22346
3.80230E+00	2.21049
3.80800E+00	2.19212
3.81350E+00	2.19089
3.82319E+00	2.18678
3.82512E+00	2.18405
3.82900E+00	2.15782
3.83520E+00	2.07527
3.84000E+00	1.98565
3.85380E+00	1.72802
3.86000E+00	1.65724
3.86464E+00	1.63941
3.86530E+00	1.63996
3.87940E+00	1.65696
3.88000E+00	1.66059
3.88480E+00	1.68963
3.88780E+00	1.70848
3.89200E+00	1.76112
3.89400E+00	1.7974
3.89640E+00	1.84094
3.90000E+00	1.92586
3.90540E+00	2.05325
3.91820E+00	2.35543
3.92380E+00	2.44495
3.92400E+00	2.44816
3.92660E+00	2.48983
3.93500E+00	2.56169
3.93940E+00	2.56748
3.94000E+00	2.56793
3.94364E+00	2.57062
3.96000E+00	2.49916
3.96200E+00	2.49041
3.96661E+00	2.38889
3.96870E+00	2.32846
3.97300E+00	2.20621
3.97640E+00	2.13565
3.97980E+00	2.09406
3.98320E+00	2.08098
3.98660E+00	2.0967
3.99000E+00	2.14071
3.99860E+00	2.17261
4.00000E+00	2.17781
4.00100E+00	2.18146
4.00540E+00	2.12128
4.00980E+00	2.10381
4.01522E+00	2.14205
4.01600E+00	2.15401
4.02220E+00	2.265
4.02270E+00	2.2767
4.03070E+00	2.46384
4.03580E+00	2.58314
4.04000E+00	2.64773
4.04260E+00	2.68772
4.04600E+00	2.70467
4.05040E+00	2.6826
4.05480E+00	2.61905
4.06130E+00	2.46921
4.06360E+00	2.41584
4.07380E+00	2.1559
4.07960E+00	2.03018
4.08000E+00	2.02329
4.08540E+00	1.9302
4.09120E+00	1.86282
4.09640E+00	1.83767
4.09700E+00	1.83534
4.09925E+00	1.84287
4.10000E+00	1.84569
4.10397E+00	1.8607
4.11060E+00	1.93364
4.12120E+00	2.09506
4.12594E+00	2.10562
4.13040E+00	2.0377
4.13640E+00	1.90001
4.13700E+00	1.88633
4.14000E+00	1.84525
4.14300E+00	1.80419
4.14370E+00	1.80078
4.14900E+00	1.775
4.16100E+00	1.74709
4.16700E+00	1.68477
4.17420E+00	1.56095
4.17660E+00	1.54034
4.17896E+00	1.54616
4.18000E+00	1.56398
4.18500E+00	1.64984
4.18610E+00	1.66385
4.18980E+00	1.71198
4.19100E+00	1.7425
4.19320E+00	1.83223
4.19540E+00	1.95844
4.20560E+00	2.68977
4.20920E+00	2.90622
4.21280E+00	3.08002
4.21640E+00	3.20401
4.22000E+00	3.27033
4.22100E+00	3.26893
4.22500E+00	3.26328
4.23000E+00	3.1719
4.24000E+00	2.89904
4.24500E+00	2.79944
4.24860E+00	2.76968
4.25930E+00	2.79956
4.26000E+00	2.8013
4.26301E+00	2.8088
4.26920E+00	2.77925
4.27540E+00	2.70582
4.28360E+00	2.58522
4.29392E+00	2.43421
4.30000E+00	2.39556
4.30900E+00	2.33843
4.32240E+00	2.25508
4.32500E+00	2.25425
4.33000E+00	2.28894
4.34000E+00	2.42725
4.34125E+00	2.44454
4.34210E+00	2.45884
4.34500E+00	2.49615
4.35000E+00	2.52565
4.35392E+00	2.51252
4.36000E+00	2.43308
4.36140E+00	2.4148
4.38040E+00	2.01426
4.38410E+00	1.96779
4.38420E+00	1.96584
4.38800E+00	1.94627
4.39180E+00	1.96184
4.39560E+00	2.00694
4.40000E+00	2.09103
4.40320E+00	2.15217
4.41220E+00	2.33971
4.41710E+00	2.39354
4.41740E+00	2.39683
4.42100E+00	2.37895
4.42228E+00	2.37262
4.42390E+00	2.35491
4.43040E+00	2.27532
4.43416E+00	2.29832
4.43900E+00	2.3956
4.44420E+00	2.44323
4.46140E+00	2.39709
4.46210E+00	2.39945
4.46485E+00	2.41984
4.46760E+00	2.43841
4.47540E+00	2.53481
4.48000E+00	2.54356
4.48080E+00	2.54509
4.49192E+00	2.44282
4.49860E+00	2.43709
4.50000E+00	2.4472
4.50300E+00	2.46885
4.50520E+00	2.48605
4.51840E+00	2.64655
4.52000E+00	2.6594
4.52600E+00	2.70765
4.52776E+00	2.71854
4.53540E+00	2.69298
4.53790E+00	2.65932
4.54000E+00	2.6129
4.54340E+00	2.5377
4.55420E+00	2.21004
4.55960E+00	2.06395
4.56000E+00	2.05709
4.56500E+00	1.97144
4.57070E+00	1.94692
4.57260E+00	1.94287
4.57907E+00	1.9312
4.58000E+00	1.92249
4.58640E+00	1.86258
4.59060E+00	1.86951
4.59629E+00	1.94426
4.60000E+00	2.03383
4.60460E+00	2.14484
4.61700E+00	2.48745
4.62000E+00	2.55055
4.62500E+00	2.65575
4.63300E+00	2.75966
4.64000E+00	2.78439
4.64087E+00	2.78748
4.64262E+00	2.78443
4.64700E+00	2.76676
4.66000E+00	2.63033
4.66360E+00	2.59257
4.66800E+00	2.54647
4.67500E+00	2.51161
4.68207E+00	2.54307
4.69880E+00	2.79034
4.70000E+00	2.79292
4.70300E+00	2.7994
4.70740E+00	2.75517
4.72000E+00	2.52716
4.72060E+00	2.5163
4.72320E+00	2.50335
4.72410E+00	2.49686
4.72500E+00	2.49269
4.73220E+00	2.59131
4.73940E+00	2.80332
4.74000E+00	2.82345
4.74660E+00	3.04493
4.75380E+00	3.23243
4.76100E+00	3.28253
4.76660E+00	3.25443
4.76940E+00	3.3244
4.77360E+00	3.49637
4.77560E+00	3.51218
4.77640E+00	3.5185
4.77740E+00	3.49352
4.77850E+00	3.45705
4.77920E+00	3.43576
4.78000E+00	3.40451
4.78280E+00	3.2951
4.78640E+00	3.15472
4.79080E+00	3.04961
4.80000E+00	2.91634
4.80840E+00	2.79461
4.80990E+00	2.7645
4.82000E+00	2.56301
4.82600E+00	2.44327
4.83200E+00	2.36256
4.83800E+00	2.34711
4.84000E+00	2.36497
4.84075E+00	2.37167
4.84240E+00	2.40137
4.84540E+00	2.4615
4.85420E+00	2.70796
4.85860E+00	2.80967
4.86000E+00	2.82514
4.86300E+00	2.85827
4.86400E+00	2.8519
4.86412E+00	2.84981
4.86900E+00	2.80927
4.87500E+00	2.66667
4.88000E+00	2.52783
4.88700E+00	2.33347
4.89300E+00	2.25956
4.89606E+00	2.26963
4.89650E+00	2.27643
4.90000E+00	2.33122
4.90200E+00	2.36254
4.91400E+00	2.63655
4.91700E+00	2.67462
4.92000E+00	2.68197
4.92300E+00	2.64948
4.92600E+00	2.57274
4.93500E+00	2.25531
4.93800E+00	2.18959
4.94000E+00	2.17798
4.94100E+00	2.17219
4.94120E+00	2.1715
4.95400E+00	2.2442
4.95414E+00	2.24613
4.95500E+00	2.25084
4.96000E+00	2.2372
4.96300E+00	2.22903
4.96392E+00	2.22651
4.97000E+00	2.17723
4.97554E+00	2.13228
4.97568E+00	2.1327
4.97853E+00	2.14307
4.98000E+00	2.16255
4.98170E+00	2.18504
4.99360E+00	2.34257
5.00000E+00	2.40469
5.00350E+00	2.43856
5.00660E+00	2.46857
5.00800E+00	2.48212
5.02000E+00	2.3321
5.02970E+00	2.21083
5.02980E+00	2.20981
5.03280E+00	2.17186
5.04000E+00	2.07158
5.04540E+00	1.99638
5.04700E+00	1.98648
5.04900E+00	1.99816
5.05480E+00	2.03202
5.06260E+00	2.18444
5.07040E+00	2.37167
5.07820E+00	2.52199
5.08000E+00	2.53156
5.08600E+00	2.56348
5.08920E+00	2.53549
5.09880E+00	2.39745
5.10000E+00	2.39239
5.10360E+00	2.37724
5.11060E+00	2.42376
5.11110E+00	2.4254
5.12600E+00	2.52729
5.14000E+00	2.73888
5.14520E+00	2.81751
5.15000E+00	2.8407
5.15010E+00	2.84046
5.15370E+00	2.8148
5.15400E+00	2.8127
5.15660E+00	2.79441
5.16000E+00	2.73424
5.17640E+00	2.44412
5.18300E+00	2.39047
5.18875E+00	2.41413
5.19450E+00	2.4521
5.20000E+00	2.49153
5.20820E+00	2.45478
5.21680E+00	2.3356
5.21720E+00	2.32955
5.22000E+00	2.28409
5.23280E+00	2.07637
5.24000E+00	2.02453
5.24100E+00	2.0173
5.25000E+00	2.03076
5.25394E+00	2.03648
5.26000E+00	2.01528
5.26400E+00	2.0012
5.27221E+00	1.95254
5.27250E+00	1.94973
5.27410E+00	1.94128
5.28000E+00	1.90635
5.28420E+00	1.88142
5.29050E+00	1.8829
5.29120E+00	1.88472
5.30000E+00	1.95853
5.30660E+00	2.01402
5.31180E+00	2.04019
5.31705E+00	2.02713
5.32000E+00	1.98746
5.32380E+00	1.93632
5.33740E+00	1.63543
5.34000E+00	1.58833
5.34420E+00	1.51244
5.35100E+00	1.46544
5.35210E+00	1.47007
5.35394E+00	1.47775
5.35570E+00	1.49132
5.36000E+00	1.52693
5.36980E+00	1.60853
5.37540E+00	1.63246
5.38220E+00	1.66158
5.39283E+00	1.67544
5.39920E+00	1.66873
5.40000E+00	1.66788
5.40010E+00	1.66778
5.41340E+00	1.65341
5.42090E+00	1.61296
5.42380E+00	1.59732
5.42900E+00	1.54588
5.43980E+00	1.40876
5.44000E+00	1.40707
5.44340E+00	1.37842
5.44702E+00	1.36837
5.44950E+00	1.38203
5.45220E+00	1.39821
5.45740E+00	1.47095
5.46000E+00	1.52509
5.47300E+00	1.79589
5.48020E+00	1.92513
5.48740E+00	2.02253
5.49480E+00	2.0905
5.49500E+00	2.09242
5.50000E+00	2.1174
5.50180E+00	2.12667
5.51000E+00	2.12592
5.51417E+00	2.12562
5.52000E+00	2.09837
5.54000E+00	2.00328
5.54140E+00	1.99632
5.54882E+00	2.01991
5.56000E+00	2.11321
5.56300E+00	2.13857
5.58000E+00	2.10729
5.58100E+00	2.1055
5.58150E+00	2.10731
5.58900E+00	2.13437
5.59000E+00	2.12893
5.59244E+00	2.11586
5.59381E+00	2.10166
5.60000E+00	2.02742
5.60540E+00	2.02247
5.60810E+00	2.04602
5.61000E+00	2.06267
5.61080E+00	2.0697
5.62000E+00	2.17957
5.62160E+00	2.19855
5.62700E+00	2.21861
5.63055E+00	2.19798
5.63410E+00	2.15356
5.64000E+00	2.07732
5.64220E+00	2.04884
5.64600E+00	2.01632
5.64680E+00	2.01512
5.64980E+00	2.01058
5.65740E+00	2.06718
5.66000E+00	2.10551
5.66500E+00	2.17907
5.67000E+00	2.26305
5.67680E+00	2.37745
5.67990E+00	2.42961
5.68720E+00	2.55243
5.69000E+00	2.59011
5.69460E+00	2.6527
5.70000E+00	2.69716
5.70590E+00	2.74582
5.71720E+00	2.74568
5.72000E+00	2.72298
5.72120E+00	2.71329
5.72680E+00	2.66638
5.74000E+00	2.49784
5.74420E+00	2.44494
5.75000E+00	2.40102
5.75380E+00	2.37217
5.76000E+00	2.36375
5.76140E+00	2.36246
5.77012E+00	2.39045
5.77060E+00	2.39354
5.77303E+00	2.39983
5.78000E+00	2.42231
5.79240E+00	2.46166
5.80000E+00	2.46923
5.80020E+00	2.46917
5.80800E+00	2.45185
5.81740E+00	2.40856
5.82000E+00	2.39667
5.82700E+00	2.36432
5.83480E+00	2.39374
5.84000E+00	2.41322
5.85100E+00	2.47307
5.86000E+00	2.46173
5.86079E+00	2.46096
5.86840E+00	2.39484
5.88000E+00	2.25019
5.90000E+00	1.99519
5.91400E+00	1.87445
5.92000E+00	1.8493
5.92600E+00	1.82514
5.93800E+00	1.82221
5.94000E+00	1.8272
5.95000E+00	1.85324
5.96000E+00	1.89529
5.98000E+00	1.98107
5.99700E+00	2.0557
6.00000E+00	2.04736
6.00700E+00	2.02775
6.00990E+00	2.07306
6.01520E+00	2.15773
6.02000E+00	2.21402
6.02340E+00	2.25377
6.03160E+00	2.31521
6.03980E+00	2.34123
6.04000E+00	2.34102
6.04800E+00	2.33378
6.05670E+00	2.28262
6.06000E+00	2.26231
6.06040E+00	2.25994
6.07900E+00	2.05786
6.08660E+00	1.9623
6.10000E+00	1.79442
6.10420E+00	1.73911
6.12100E+00	1.56716
6.12760E+00	1.52552
6.13200E+00	1.52231
6.13840E+00	1.56744
6.14000E+00	1.58983
6.15760E+00	1.84016
6.16000E+00	1.85418
6.16600E+00	1.89197
6.17400E+00	1.87924
6.18000E+00	1.9028
6.18900E+00	1.93661
6.20000E+00	2.06187
6.20400E+00	2.10679
6.21340E+00	2.25006
6.22210E+00	2.38265
6.23400E+00	2.56393
6.23610E+00	2.59043
6.24000E+00	2.63991
6.24900E+00	2.73965
6.25000E+00	2.74273
6.26000E+00	2.7938
6.26241E+00	2.80686
6.26730E+00	2.79684
6.27000E+00	2.79131
6.27100E+00	2.78873
6.27250E+00	2.77558
6.27870E+00	2.71751
6.28180E+00	2.68874
6.28200E+00	2.68688
6.29000E+00	2.56853
6.29300E+00	2.52363
6.30000E+00	2.40808
6.30630E+00	2.30125
6.31000E+00	2.23881
6.31500E+00	2.15369
6.32000E+00	2.0912
6.32600E+00	2.0172
6.33480E+00	1.95992
6.34000E+00	1.95267
6.34360E+00	1.95016
6.35330E+00	1.98912
6.35460E+00	1.99531
6.36000E+00	2.02456
6.36560E+00	2.06101
6.36980E+00	2.07245
6.37000E+00	2.07183
6.37400E+00	2.06771
6.37680E+00	2.06389
6.38000E+00	2.05043
6.38820E+00	2.00527
6.39720E+00	1.95558
6.40000E+00	1.95771
6.40400E+00	1.94032
6.42000E+00	1.98835
6.42711E+00	2.01365
6.43800E+00	1.98872
6.44000E+00	1.96958
6.44707E+00	1.91621
6.46000E+00	1.76766
6.46440E+00	1.71875
6.46560E+00	1.70564
6.47480E+00	1.61518
6.48000E+00	1.5892
6.48400E+00	1.56424
6.49320E+00	1.56551
6.49730E+00	1.57748
6.50000E+00	1.58582
6.50700E+00	1.60391
6.51860E+00	1.60417
6.52450E+00	1.58634
6.53020E+00	1.5684
6.54000E+00	1.51125
6.55340E+00	1.43155
6.56000E+00	1.38638
6.57290E+00	1.30448
6.57420E+00	1.29622
6.58000E+00	1.27656
6.58340E+00	1.26644
6.58800E+00	1.26819
6.59260E+00	1.29037
6.59740E+00	1.3144
6.60000E+00	1.33954
6.60680E+00	1.40936
6.61620E+00	1.54024
6.62000E+00	1.60367
6.64000E+00	1.9305
6.64940E+00	2.09543
6.65900E+00	2.20677
6.67000E+00	2.26403
6.67230E+00	2.27594
6.68000E+00	2.31582
6.68300E+00	2.32505
6.69000E+00	2.36705
6.69500E+00	2.39666
6.69978E+00	2.38933
6.70890E+00	2.31503
6.71000E+00	2.30424
6.71070E+00	2.29646
6.72000E+00	2.19294
6.72380E+00	2.15376
6.73340E+00	2.0881
6.74000E+00	2.07043
6.74271E+00	2.06643
6.75000E+00	2.07255
6.76000E+00	2.08095
6.76320E+00	2.08556
6.77245E+00	2.0577
6.77300E+00	2.05492
6.77451E+00	2.05146
6.78000E+00	2.03479
6.79040E+00	2.01908
6.80000E+00	2.00521
6.82000E+00	1.86668
6.82900E+00	1.80722
6.83672E+00	1.80725
6.84000E+00	1.81952
6.85780E+00	1.90904
6.86000E+00	1.9201
6.86700E+00	1.95473
6.87440E+00	1.96185
6.88920E+00	1.91855
6.90400E+00	1.81689
6.91960E+00	1.69226
6.92000E+00	1.68989
6.92480E+00	1.6685
6.93000E+00	1.66298
6.93030E+00	1.66435
6.93740E+00	1.69732
6.93750E+00	1.698
6.94000E+00	1.70986
6.95000E+00	1.78772
6.95500E+00	1.8288
6.96000E+00	1.85617
6.96520E+00	1.87381
6.97572E+00	1.88643
6.98000E+00	1.88444
6.99580E+00	1.87962
7.00000E+00	1.88103
7.00150E+00	1.88354
7.00600E+00	1.89211
7.02000E+00	1.96877
7.03720E+00	2.03077
7.04000E+00	2.03585
7.04500E+00	2.04992
7.04960E+00	2.04937
7.05235E+00	2.04814
7.05510E+00	2.04089
7.06000E+00	2.02562
7.06060E+00	2.0235
7.06840E+00	1.97729
7.07620E+00	1.90964
7.08000E+00	1.86949
7.08400E+00	1.82097
7.09190E+00	1.71702
7.10000E+00	1.61045
7.10540E+00	1.53647
7.10980E+00	1.49263
7.11100E+00	1.48114
7.11570E+00	1.44861
7.11620E+00	1.44515
7.12000E+00	1.42959
7.12140E+00	1.42592
7.12500E+00	1.42521
7.12660E+00	1.42507
7.13180E+00	1.44404
7.13430E+00	1.46574
7.13500E+00	1.47186
7.13960E+00	1.51253
7.14000E+00	1.5182
7.15000E+00	1.67009
7.16000E+00	1.83993
7.16190E+00	1.87448
7.16400E+00	1.91269
7.17200E+00	2.00238
7.18000E+00	2.05096
7.18800E+00	2.0711
7.20000E+00	2.09427
7.21400E+00	2.09611
7.21720E+00	2.09646
7.22000E+00	2.09672
7.23561E+00	2.10958
7.24000E+00	2.10777
7.26000E+00	2.10176
7.26340E+00	2.10106
7.26610E+00	2.10688
7.28000E+00	2.13843
7.28500E+00	2.14398
7.30000E+00	2.15009
7.30660E+00	2.14541
7.31760E+00	2.19692
7.32000E+00	2.21271
7.32880E+00	2.27062
7.33440E+00	2.28613
7.34000E+00	2.25905
7.34298E+00	2.24703
7.35400E+00	2.13628
7.36000E+00	2.11461
7.37080E+00	2.11383
7.38000E+00	2.09529
7.40000E+00	2.06688
7.41840E+00	2.02841
7.42000E+00	2.03071
7.44000E+00	2.09445
7.44360E+00	2.10273
7.45480E+00	2.0918
7.46000E+00	2.09131
7.48000E+00	2.01819
7.50000E+00	1.94062
7.50450E+00	1.93447
7.51180E+00	1.92672
7.51460E+00	1.92439
7.52000E+00	1.92004
7.54000E+00	1.90922
7.55000E+00	1.90635
7.57520E+00	1.9129
7.57880E+00	1.91724
7.58000E+00	1.91866
7.60000E+00	1.94361
7.61625E+00	1.9525
7.62000E+00	1.95837
7.64000E+00	1.98705
7.64500E+00	2.00087
7.64900E+00	2.01222
7.66000E+00	2.03214
7.68000E+00	2.09235
7.68130E+00	2.09398
7.68200E+00	2.09491
7.68300E+00	2.09804
7.70000E+00	2.15122
7.72000E+00	2.14998
7.74000E+00	2.11224
7.76000E+00	2.11666
7.76400E+00	2.12337
7.78000E+00	2.08959
7.78365E+00	2.08244
7.80000E+00	2.0406
7.80330E+00	2.02978
7.82000E+00	1.97453
7.82100E+00	1.97086
7.83320E+00	1.97579
7.84000E+00	2.00244
7.84540E+00	2.02393
7.86000E+00	2.0953
7.87640E+00	2.18869
7.90000E+00	2.24193
7.90120E+00	2.24442
7.90740E+00	2.24202
7.90750E+00	2.24178
7.92000E+00	2.23672
7.92600E+00	2.23287
7.94000E+00	2.20363
7.96000E+00	2.15179
7.96760E+00	2.12838
7.98000E+00	2.09013
8.00000E+00	2.01971
8.00400E+00	2.00592
8.03000E+00	1.89557
8.05440E+00	1.79043
8.06000E+00	1.76064
8.07180E+00	1.70706
8.07810E+00	1.67853
8.08000E+00	1.67001
8.08300E+00	1.65727
8.09584E+00	1.64883
8.12000E+00	1.68617
8.13780E+00	1.72001
8.14000E+00	1.72209
8.16000E+00	1.7456
8.17610E+00	1.75401
8.18340E+00	1.75791
8.20620E+00	1.79171
8.22000E+00	1.83466
8.24000E+00	1.89038
8.24840E+00	1.91139
8.26000E+00	1.89304
8.28000E+00	1.86143
8.31100E+00	1.83506
8.32000E+00	1.8361
8.33140E+00	1.84943
8.34500E+00	1.89808
8.36000E+00	1.97314
8.36540E+00	1.9983
8.37733E+00	2.00248
8.38925E+00	1.99897
8.40000E+00	1.99474
8.42000E+00	1.97757
8.42900E+00	1.96116
8.46000E+00	1.97624
8.47780E+00	1.98899
8.48000E+00	1.98646
8.52000E+00	1.9801
8.54000E+00	1.97001
8.54680E+00	1.96157
8.56000E+00	1.96091
8.58000E+00	1.95921
8.58130E+00	1.95952
8.58490E+00	1.96148
8.59510E+00	1.96288
8.60000E+00	1.96395
8.60200E+00	1.96779
8.62000E+00	1.93672
8.63673E+00	1.92717
8.64000E+00	1.93369
8.66000E+00	1.93306
8.68000E+00	1.90663
8.68020E+00	1.9064
8.69460E+00	1.8767
8.70000E+00	1.85031
8.71600E+00	1.7766
8.73700E+00	1.64923
8.74000E+00	1.64085
8.74530E+00	1.62727
8.75120E+00	1.61249
8.76000E+00	1.61829
8.76552E+00	1.62879
8.77000E+00	1.64321
8.77810E+00	1.65437
8.78000E+00	1.657
8.80000E+00	1.70455
8.80530E+00	1.72171
8.82000E+00	1.77037
8.85300E+00	1.866
8.89700E+00	2.01323
8.96060E+00	2.06235
8.98000E+00	2.07403
8.98180E+00	2.07564
9.00000E+00	2.09126
9.02000E+00	2.10282
9.02018E+00	2.10293
9.03520E+00	2.09461
9.06560E+00	2.01427
9.09600E+00	1.91703
9.13010E+00	1.83557
9.13500E+00	1.82389
9.17300E+00	1.66906
9.18860E+00	1.63058
9.21980E+00	1.61396
9.26889E+00	1.66193
9.27122E+00	1.66488
9.29460E+00	1.75623
9.31820E+00	1.86439
9.33800E+00	1.91068
9.33860E+00	1.91052
9.37000E+00	1.88827
9.40200E+00	2.02319
9.41381E+00	2.02163
9.43800E+00	1.93945
9.45400E+00	1.92545
9.51080E+00	1.92233
9.55160E+00	1.86243
9.57510E+00	1.7934
9.59245E+00	1.74137
9.60980E+00	1.68997
9.62240E+00	1.66422
9.64320E+00	1.66035
9.70961E+00	1.78325
9.78000E+00	1.82717
9.79500E+00	1.83653
9.80000E+00	1.83781
9.81260E+00	1.84073
9.82000E+00	1.84279
9.84600E+00	1.85003
9.96840E+00	1.84914
1.00000E+01	1.86388
1.00640E+01	1.89107
1.01053E+01	1.8748
1.01190E+01	1.86437
1.01740E+01	1.81758
1.02000E+01	1.77818
1.02306E+01	1.8249
1.02700E+01	1.85006
1.03160E+01	1.9166
1.03404E+01	1.90509
1.03430E+01	1.89876
1.04200E+01	1.7133
1.04600E+01	1.66391
1.05000E+01	1.65733
1.05080E+01	1.65602
1.05200E+01	1.66577
1.05400E+01	1.68213
1.05800E+01	1.71467
1.06000E+01	1.73096
1.06200E+01	1.72128
1.06700E+01	1.6971
1.06986E+01	1.71533
1.07920E+01	1.83993
1.08000E+01	1.84486
1.08440E+01	1.87204
1.08500E+01	1.86965
1.08800E+01	1.85764
1.09000E+01	1.84962
1.09074E+01	1.84667
1.09122E+01	1.84338
1.09400E+01	1.81574
1.09530E+01	1.80277
1.09600E+01	1.79596
1.09800E+01	1.7765
1.10000E+01	1.757
1.11600E+01	1.65691
1.11997E+01	1.66717
1.12000E+01	1.66759
1.12560E+01	1.7626
1.13000E+01	1.80348
1.13600E+01	1.88804
1.13800E+01	1.89461
1.13920E+01	1.89861
1.14000E+01	1.88987
1.14400E+01	1.84599
1.14600E+01	1.82415
1.14800E+01	1.84376
1.14840E+01	1.84766
1.15200E+01	1.91771
1.15320E+01	1.94106
1.15551E+01	1.93033
1.15597E+01	1.92658
1.15600E+01	1.92624
1.16060E+01	1.86301
1.17250E+01	1.86146
1.18250E+01	1.86013
1.19000E+01	1.85938
1.19750E+01	1.85833
1.20000E+01	1.85801
1.20010E+01	1.858
1.21000E+01	1.85674
1.23500E+01	1.85298
1.24450E+01	1.85154
1.24500E+01	1.85149
1.25000E+01	1.8508
1.30000E+01	1.84263
1.30500E+01	1.8416
1.31500E+01	1.83955
1.34500E+01	1.83342
1.35000E+01	1.8323
1.38500E+01	1.81968
1.39000E+01	1.81787
1.39500E+01	1.81596
1.40000E+01	1.81405
1.45000E+01	1.7949
1.45120E+01	1.79524
1.47500E+01	1.80443
1.50000E+01	1.81377
1.55000E+01	1.82931
1.57500E+01	1.83707
1.60000E+01	1.84456
1.61320E+01	1.84808
1.62500E+01	1.8514
1.65000E+01	1.85841
1.70000E+01	1.8396
1.75000E+01	1.82256
1.77500E+01	1.84167
1.77940E+01	1.84489
1.80000E+01	1.86078
1.81470E+01	1.87192
1.85000E+01	1.8989
1.87500E+01	1.90018
1.90000E+01	1.90146
1.92500E+01	1.90197
1.92681E+01	1.90201
1.95000E+01	1.90259
2.00000E+01	1.90361
