E(MeV)	"O-16(N,TOT)"
1.00000E-11	54.976
1.10304E-11	52.3566
1.21669E-11	49.8631
1.34205E-11	47.4895
1.48034E-11	45.2306
1.48080E-11	45.2231
1.63287E-11	43.083
1.63646E-11	43.0325
1.80111E-11	41.0409
1.81111E-11	40.9199
1.98669E-11	39.0938
2.00055E-11	38.9496
2.19139E-11	37.2384
2.20603E-11	37.1072
2.41719E-11	35.4731
2.43333E-11	35.3482
2.66625E-11	33.7932
2.68405E-11	33.6743
2.94097E-11	32.1999
2.97499E-11	32.0047
3.24400E-11	30.6777
3.28152E-11	30.4926
3.57825E-11	29.2299
3.61964E-11	29.0538
3.94694E-11	27.8524
3.99260E-11	27.6849
4.35362E-11	26.5419
4.40398E-11	26.3825
4.80221E-11	25.2952
4.85775E-11	25.1436
5.29701E-11	24.1093
5.35828E-11	23.9651
5.84280E-11	22.9814
5.91038E-11	22.8442
6.44483E-11	21.9087
6.51937E-11	21.7783
7.10888E-11	20.8887
7.19111E-11	20.7647
7.84136E-11	19.9189
7.93206E-11	19.801
8.64931E-11	18.997
8.74935E-11	18.8849
9.54051E-11	18.1207
9.65086E-11	18.0141
1.05235E-10	17.288
1.06453E-10	17.1867
1.16078E-10	16.4987
1.17851E-10	16.372
1.28039E-10	15.7478
1.30308E-10	15.6088
1.41232E-10	15.0367
1.44741E-10	14.8529
1.55784E-10	14.3605
1.60781E-10	14.1376
1.71835E-10	13.718
1.78590E-10	13.4616
1.89540E-10	13.1079
1.98380E-10	12.8223
2.09070E-10	12.5286
2.20364E-10	12.2183
2.30612E-10	11.9791
2.45029E-10	11.6426
2.54374E-10	11.4575
2.72342E-10	11.1016
2.80583E-10	10.963
3.02522E-10	10.5941
3.09494E-10	10.4946
3.36031E-10	10.1158
3.41383E-10	10.0512
3.74506E-10	9.65118
3.76558E-10	9.63029
4.15358E-10	9.2354
4.17608E-10	9.2125
4.58155E-10	8.86405
4.63863E-10	8.815
5.05362E-10	8.51346
5.15737E-10	8.43807
5.57433E-10	8.18327
5.76043E-10	8.06955
6.14869E-10	7.87065
6.42118E-10	7.73106
6.78223E-10	7.57631
7.17855E-10	7.40645
7.48105E-10	7.29843
8.02992E-10	7.10244
8.25188E-10	7.03672
9.01149E-10	6.81179
9.10213E-10	6.78957
1.00400E-09	6.55967
1.00802E-09	6.5498
1.10745E-09	6.34785
1.12757E-09	6.30697
1.22156E-09	6.15004
1.27020E-09	6.06882
1.34742E-09	5.96356
1.42891E-09	5.85248
1.48625E-09	5.78899
1.61410E-09	5.64742
1.63939E-09	5.6248
1.80831E-09	5.4737
1.82216E-09	5.46132
1.99463E-09	5.33751
2.06702E-09	5.28555
2.20015E-09	5.2099
2.36121E-09	5.11838
2.42685E-09	5.0892
2.67691E-09	4.97803
2.70300E-09	4.96643
2.95273E-09	4.88032
3.10515E-09	4.82776
3.25697E-09	4.78776
3.59256E-09	4.69934
3.59714E-09	4.69813
3.96272E-09	4.62586
4.19647E-09	4.57965
4.37103E-09	4.55421
4.82141E-09	4.48856
4.93020E-09	4.4727
5.31819E-09	4.43198
5.86616E-09	4.37447
5.87364E-09	4.37369
6.47059E-09	4.32995
7.09669E-09	4.28407
7.13730E-09	4.28205
7.87271E-09	4.24555
8.68389E-09	4.20529
8.69496E-09	4.20474
9.57865E-09	4.1761
1.05656E-08	4.14411
1.08797E-08	4.13393
1.16543E-08	4.11833
1.28551E-08	4.09415
1.40002E-08	4.07109
1.41796E-08	4.06898
1.56406E-08	4.05183
1.72522E-08	4.03291
1.86583E-08	4.0164
1.90298E-08	4.01398
2.09906E-08	4.00122
2.31534E-08	3.98714
2.52419E-08	3.97355
2.52579E-08	3.97345
2.53000E-08	3.97324
2.79068E-08	3.9648
3.07823E-08	3.95549
3.39540E-08	3.94521
3.74525E-08	3.93389
4.13115E-08	3.92871
4.55681E-08	3.923
5.02633E-08	3.9167
5.54423E-08	3.90976
6.11549E-08	3.9021
6.74561E-08	3.8994
7.44066E-08	3.89642
8.20732E-08	3.89314
9.05297E-08	3.88952
9.98577E-08	3.88553
1.10147E-07	3.88112
1.17317E-07	3.87805
1.21496E-07	3.8777
1.34014E-07	3.87663
1.47823E-07	3.87546
1.63054E-07	3.87416
1.79855E-07	3.87273
1.98386E-07	3.87116
2.18827E-07	3.86942
2.41375E-07	3.86751
2.66245E-07	3.8654
2.93678E-07	3.86307
3.08445E-07	3.86181
3.23938E-07	3.86174
3.57316E-07	3.86158
3.94132E-07	3.86141
4.34743E-07	3.86122
4.79537E-07	3.86102
5.28947E-07	3.86079
5.83448E-07	3.86053
6.48105E-07	3.86024
7.14884E-07	3.85993
7.88543E-07	3.85959
8.69792E-07	3.85921
9.59413E-07	3.8588
1.05827E-06	3.85834
1.17549E-06	3.8578
1.29660E-06	3.85724
1.44029E-06	3.85658
1.59982E-06	3.85585
1.76466E-06	3.85509
1.96022E-06	3.85419
2.16219E-06	3.85326
2.38498E-06	3.85325
2.63072E-06	3.85323
2.94272E-06	3.85322
3.29172E-06	3.8532
3.63089E-06	3.85318
4.00501E-06	3.85316
4.41767E-06	3.85314
4.87286E-06	3.85312
5.33729E-06	3.85309
6.01240E-06	3.85306
6.67836E-06	3.85302
7.47040E-06	3.85298
8.35638E-06	3.85294
9.21740E-06	3.85289
1.00257E-05	3.85285
1.11367E-05	3.85279
1.24575E-05	3.85273
1.37411E-05	3.85266
1.51569E-05	3.85259
1.67187E-05	3.85251
1.87015E-05	3.85241
2.03414E-05	3.85232
2.24374E-05	3.85222
2.49226E-05	3.85209
2.56308E-05	3.85206
2.82717E-05	3.85206
3.18478E-05	3.85207
3.53753E-05	3.85207
3.90203E-05	3.85208
3.95708E-05	3.85208
4.36481E-05	3.85207
4.95135E-05	3.85206
5.73614E-05	3.85204
6.50696E-05	3.85202
7.12714E-05	3.85201
8.31463E-05	3.85199
9.63249E-05	3.85196
1.02590E-04	3.85195
1.19684E-04	3.85191
1.40609E-04	3.85187
1.94068E-04	3.85176
2.12564E-04	3.85172
3.15447E-04	3.85151
4.01267E-04	3.85133
5.02091E-04	3.85113
6.92980E-04	3.85074
7.22726E-04	3.85068
8.79334E-04	3.85035
1.23077E-03	3.84963
1.43416E-03	3.84922
1.72066E-03	3.84863
2.01411E-03	3.84803
2.38284E-03	3.84728
2.85884E-03	3.8463
3.18459E-03	3.84563
3.77550E-03	3.84442
4.51707E-03	3.8429
5.05279E-03	3.84181
6.08617E-03	3.83969
7.20039E-03	3.83741
8.40007E-03	3.83495
9.98611E-03	3.8317
1.20291E-02	3.82751
1.43997E-02	3.82266
1.71961E-02	3.81693
2.01411E-02	3.81089
2.43745E-02	3.80222
2.89550E-02	3.79283
3.45912E-02	3.78128
4.13665E-02	3.7674
4.91870E-02	3.75137
5.90805E-02	3.7311
7.08400E-02	3.707
8.33365E-02	3.6814
1.00272E-01	3.64669
1.11860E-01	3.62294
1.23019E-01	3.60393
1.59405E-01	3.54194
1.82512E-01	3.50257
2.15428E-01	3.46285
2.27847E-01	3.44786
2.37050E-01	3.4429
2.55040E-01	3.4332
2.55624E-01	3.43289
2.60000E-01	3.43147
2.69431E-01	3.43652
2.80404E-01	3.44239
2.81975E-01	3.44323
2.91120E-01	3.4597
3.01130E-01	3.47772
3.02116E-01	3.4795
3.09687E-01	3.50515
3.12187E-01	3.51362
3.17564E-01	3.54017
3.22257E-01	3.56335
3.24000E-01	3.5746
3.30000E-01	3.61333
3.30424E-01	3.61725
3.36144E-01	3.67012
3.40000E-01	3.70575
3.41150E-01	3.72111
3.45963E-01	3.78538
3.50000E-01	3.83929
3.50434E-01	3.8478
3.54724E-01	3.93186
3.58300E-01	4.00192
3.59945E-01	4.03416
3.61864E-01	4.09071
3.65440E-01	4.19609
3.68300E-01	4.28037
3.70000E-01	4.33047
3.71160E-01	4.38374
3.74020E-01	4.51507
3.76880E-01	4.6464
3.79730E-01	4.77727
3.80000E-01	4.78967
3.81874E-01	4.92927
3.84020E-01	5.08907
3.86164E-01	5.24878
3.88310E-01	5.40858
3.90000E-01	5.53445
3.90454E-01	5.59173
3.92600E-01	5.86222
3.94030E-01	6.04249
3.96164E-01	6.31156
3.97594E-01	6.49183
3.99740E-01	6.76232
4.00000E-01	6.7951
4.01170E-01	7.01605
4.03314E-01	7.42099
4.04744E-01	7.69104
4.05000E-01	7.73931
4.06174E-01	8.03066
4.07604E-01	8.38542
4.09750E-01	8.91773
4.10000E-01	8.97975
4.11894E-01	9.58206
4.14030E-01	10.2611
4.15000E-01	10.5695
4.16174E-01	11.0189
4.20000E-01	12.4829
4.22610E-01	13.5309
4.24040E-01	14.105
4.25000E-01	14.4905
4.25470E-01	14.6381
4.26900E-01	15.0871
4.28330E-01	15.5362
4.29760E-01	15.9853
4.30000E-01	16.0606
4.31180E-01	16.1773
4.32610E-01	16.3187
4.34040E-01	16.4601
4.35000E-01	16.555
4.35470E-01	16.4806
4.36900E-01	16.2541
4.38330E-01	16.0277
4.39760E-01	15.8012
4.39986E-01	15.7653
4.41190E-01	15.3665
4.44050E-01	14.4187
4.45000E-01	14.1039
4.49044E-01	12.5688
4.50000E-01	12.206
4.51190E-01	11.7932
4.53334E-01	11.0492
4.55000E-01	10.4714
4.55480E-01	10.334
4.57624E-01	9.72032
4.59770E-01	9.10632
4.60000E-01	9.0405
4.61914E-01	8.60794
4.63344E-01	8.28485
4.65000E-01	7.91079
4.65480E-01	7.82641
4.67624E-01	7.44945
4.69770E-01	7.0723
4.70000E-01	7.03188
4.71914E-01	6.76983
4.74060E-01	6.47616
4.75000E-01	6.3475
4.76204E-01	6.2181
4.78350E-01	5.98761
4.80000E-01	5.81036
4.80494E-01	5.76819
4.83349E-01	5.52471
4.85000E-01	5.38395
4.85490E-01	5.35037
4.88350E-01	5.15436
4.90000E-01	5.04127
4.90494E-01	5.01369
4.93354E-01	4.85412
4.95000E-01	4.76232
4.96215E-01	4.7065
4.98360E-01	4.60789
5.00000E-01	4.53252
5.10000E-01	4.1794
5.20000E-01	3.92365
5.30000E-01	3.73162
5.40000E-01	3.5827
5.50000E-01	3.46398
5.60000E-01	3.36727
5.70000E-01	3.28666
5.84091E-01	3.19428
6.00000E-01	3.10825
6.24374E-01	3.0074
6.44515E-01	2.94038
6.69311E-01	2.87354
7.00000E-01	2.80734
7.30047E-01	2.76071
7.60000E-01	2.72913
7.80000E-01	2.72003
8.00000E-01	2.72314
8.20000E-01	2.74314
8.40000E-01	2.78786
8.60000E-01	2.87068
8.80000E-01	3.01512
9.00000E-01	3.26424
9.10000E-01	3.45084
9.20000E-01	3.69788
9.30000E-01	4.02554
9.40000E-01	4.45839
9.50000E-01	5.02152
9.60000E-01	5.72747
9.70000E-01	6.50826
9.80000E-01	7.36364
9.90000E-01	7.96906
1.00000E+00	8.15305
1.01000E+00	7.86968
1.02000E+00	7.26724
1.02842E+00	6.66985
1.03250E+00	6.3799
1.03567E+00	6.16253
1.04000E+00	5.86561
1.05000E+00	5.27154
1.05764E+00	4.89671
1.06000E+00	4.78082
1.06510E+00	4.57801
1.07000E+00	4.38308
1.08000E+00	4.06184
1.09000E+00	3.80151
1.10000E+00	3.58879
1.11000E+00	3.41401
1.12000E+00	3.26776
1.13000E+00	3.1451
1.14000E+00	3.04224
1.15000E+00	2.95484
1.16000E+00	2.88013
1.17000E+00	2.8174
1.18000E+00	2.76443
1.19000E+00	2.72204
1.19142E+00	2.71731
1.20000E+00	2.68873
1.21000E+00	2.66696
1.22000E+00	2.65805
1.23000E+00	2.66756
1.24000E+00	2.6988
1.24256E+00	2.71663
1.25000E+00	2.76845
1.26000E+00	2.89917
1.27000E+00	3.1374
1.28000E+00	3.57332
1.28500E+00	3.91308
1.29000E+00	4.36666
1.29500E+00	4.94821
1.29590E+00	5.06936
1.30125E+00	5.79343
1.30500E+00	6.28574
1.31000E+00	6.69748
1.31500E+00	6.68004
1.32000E+00	6.26527
1.33000E+00	5.03878
1.34000E+00	4.07384
1.35000E+00	3.4683
1.35152E+00	3.41086
1.36000E+00	3.09084
1.36099E+00	3.06648
1.37000E+00	2.8444
1.37059E+00	2.83439
1.38000E+00	2.67442
1.39000E+00	2.55108
1.40000E+00	2.45751
1.45000E+00	2.19427
1.50000E+00	2.05702
1.50122E+00	2.05469
1.51181E+00	2.03444
1.55000E+00	1.96141
1.60000E+00	1.89033
1.62000E+00	1.88048
1.62151E+00	1.88386
1.63000E+00	1.90291
1.64000E+00	2.06964
1.64200E+00	2.18874
1.64300E+00	2.28473
1.64400E+00	2.42403
1.64475E+00	2.57853
1.64500E+00	2.63423
1.64587E+00	2.92052
1.64600E+00	2.96811
1.64625E+00	3.1006
1.64694E+00	3.48618
1.64700E+00	3.52994
1.64713E+00	3.64101
1.64794E+00	4.44319
1.64800E+00	4.51553
1.64813E+00	4.68865
1.64844E+00	5.15984
1.64856E+00	5.37399
1.64887E+00	5.97331
1.64900E+00	6.22317
1.64950E+00	7.33492
1.64994E+00	8.24983
1.65000E+00	8.35948
1.65013E+00	8.52255
1.65044E+00	8.84807
1.65053E+00	8.88449
1.65062E+00	8.85579
1.65094E+00	8.67158
1.65103E+00	8.56755
1.65119E+00	8.29707
1.65150E+00	7.70326
1.65200E+00	6.59161
1.65225E+00	6.11782
1.65294E+00	4.85472
1.65303E+00	4.71169
1.65313E+00	4.59885
1.65394E+00	3.72084
1.65400E+00	3.66305
1.65412E+00	3.57343
1.65494E+00	3.07713
1.65506E+00	3.01616
1.65575E+00	2.76457
1.65600E+00	2.6777
1.65675E+00	2.5025
1.65700E+00	2.44763
1.65800E+00	2.29514
1.65900E+00	2.18945
1.66000E+00	2.11374
1.66500E+00	1.92987
1.67000E+00	1.86139
1.67500E+00	1.82658
1.68350E+00	1.79305
1.68500E+00	1.78951
1.68600E+00	1.80798
1.68700E+00	1.85522
1.68800E+00	1.91377
1.68900E+00	1.9636
1.69000E+00	1.98307
1.69100E+00	1.95805
1.69400E+00	1.78907
1.69500E+00	1.76621
1.73213E+00	1.70403
1.76000E+00	1.66069
1.78000E+00	1.62479
1.80000E+00	1.57935
1.82000E+00	1.57036
1.82200E+00	1.60633
1.82400E+00	1.6847
1.82550E+00	1.81065
1.82600E+00	1.85639
1.82650E+00	1.94968
1.82794E+00	2.22942
1.82800E+00	2.24657
1.82812E+00	2.29335
1.82987E+00	3.04329
1.83000E+00	3.10325
1.83025E+00	3.25898
1.83187E+00	4.30645
1.83200E+00	4.37813
1.83250E+00	4.5618
1.83294E+00	4.71093
1.83306E+00	4.72779
1.83375E+00	4.67675
1.83400E+00	4.64824
1.83450E+00	4.4766
1.83500E+00	4.29434
1.83600E+00	3.86997
1.83700E+00	3.48795
1.83800E+00	3.17846
1.83900E+00	2.93634
1.84000E+00	2.74841
1.84200E+00	2.48423
1.84400E+00	2.31364
1.84600E+00	2.19812
1.84800E+00	2.11664
1.85000E+00	2.05713
1.85200E+00	2.01287
1.85229E+00	2.00802
1.85400E+00	1.97942
1.85600E+00	1.9541
1.85900E+00	1.9284
1.86000E+00	1.92172
1.86500E+00	1.90675
1.86536E+00	1.90744
1.87000E+00	1.91637
1.87500E+00	1.95353
1.88000E+00	2.02876
1.88500E+00	2.16215
1.89000E+00	2.38387
1.89500E+00	2.71305
1.90000E+00	3.06463
1.90500E+00	3.18029
1.91000E+00	2.95871
1.91500E+00	2.62526
1.92000E+00	2.34821
1.92500E+00	2.15218
1.93000E+00	2.01705
1.93500E+00	1.92196
1.94000E+00	1.85294
1.95000E+00	1.76041
1.96000E+00	1.70135
1.97000E+00	1.65953
1.98000E+00	1.62762
1.99500E+00	1.59065
2.00000E+00	1.57962
2.05000E+00	1.49521
2.10000E+00	1.42209
2.15000E+00	1.33898
2.20000E+00	1.22056
2.22000E+00	1.15216
2.24000E+00	1.06245
2.26000E+00	0.941467
2.28000E+00	0.777265
2.30000E+00	0.563317
2.30875E+00	0.458022
2.31575E+00	0.373252
2.32100E+00	0.311622
2.32400E+00	0.278301
2.32700E+00	0.246831
2.32900E+00	0.2271
2.33100E+00	0.208532
2.33300E+00	0.191258
2.33450E+00	0.17926
2.33600E+00	0.168044
2.33750E+00	0.157795
2.33900E+00	0.148415
2.34050E+00	0.14009
2.34150E+00	0.13508
2.34250E+00	0.130535
2.34350E+00	0.126455
2.34450E+00	0.12285
2.34550E+00	0.119735
2.34650E+00	0.11711
2.34750E+00	0.114975
2.34850E+00	0.11333
2.34950E+00	0.112185
2.35050E+00	0.11154
2.35100E+00	0.111357
2.35200E+00	0.111447
2.35300E+00	0.112038
2.35394E+00	0.113085
2.35417E+00	0.113345
2.35536E+00	0.115358
2.35700E+00	0.119212
2.35800E+00	0.122176
2.35900E+00	0.125595
2.36000E+00	0.129445
2.36150E+00	0.136075
2.36300E+00	0.143554
2.36450E+00	0.15198
2.36600E+00	0.161178
2.36800E+00	0.174692
2.37000E+00	0.189473
2.37500E+00	0.231105
2.38000E+00	0.277798
2.40000E+00	0.480777
2.41000E+00	0.575563
2.42000E+00	0.659739
2.43000E+00	0.732341
2.43424E+00	0.75843
2.44000E+00	0.793875
2.45000E+00	0.84551
2.45129E+00	0.851073
2.46000E+00	0.888605
2.46858E+00	0.919411
2.47000E+00	0.924499
2.48000E+00	0.954352
2.49000E+00	0.979205
2.50000E+00	0.999893
2.52000E+00	1.03148
2.53873E+00	1.052
2.54000E+00	1.05339
2.55651E+00	1.06586
2.56000E+00	1.06849
2.57455E+00	1.07591
2.58000E+00	1.07869
2.60000E+00	1.08539
2.64953E+00	1.09253
2.65000E+00	1.09259
2.67464E+00	1.09274
2.68729E+00	1.09282
2.69364E+00	1.09286
2.69682E+00	1.09288
2.69821E+00	1.09289
2.69940E+00	1.09289
2.70000E+00	1.0929
2.70155E+00	1.09285
2.70305E+00	1.0928
2.70450E+00	1.09275
2.70591E+00	1.09271
2.70728E+00	1.09267
2.70925E+00	1.0926
2.71114E+00	1.09254
2.71293E+00	1.09249
2.71464E+00	1.09243
2.71627E+00	1.09238
2.71784E+00	1.09233
2.71932E+00	1.09228
2.72074E+00	1.09224
2.72256E+00	1.09218
2.72294E+00	1.09217
2.72427E+00	1.09212
2.72587E+00	1.09207
2.72737E+00	1.09202
2.72878E+00	1.09198
2.73074E+00	1.09192
2.73250E+00	1.09186
2.73412E+00	1.09181
2.73511E+00	1.09178
2.73697E+00	1.09172
2.73859E+00	1.09167
2.74002E+00	1.09162
2.74181E+00	1.09156
2.74331E+00	1.09152
2.74498E+00	1.09146
2.74623E+00	1.09142
2.74812E+00	1.09136
2.75000E+00	1.0913
2.75230E+00	1.09133
2.75451E+00	1.09137
2.75660E+00	1.09139
2.75861E+00	1.09142
2.76051E+00	1.09145
2.76234E+00	1.09148
2.76408E+00	1.0915
2.76574E+00	1.09152
2.76787E+00	1.09155
2.76987E+00	1.09158
2.77174E+00	1.09161
2.77350E+00	1.09163
2.77515E+00	1.09166
2.77744E+00	1.09169
2.77951E+00	1.09172
2.78140E+00	1.09174
2.78365E+00	1.09178
2.78569E+00	1.0918
2.78747E+00	1.09183
2.78976E+00	1.09186
2.79104E+00	1.09188
2.79328E+00	1.09191
2.79559E+00	1.09194
2.79716E+00	1.09197
2.79905E+00	1.09199
2.80000E+00	1.09201
2.80230E+00	1.0924
2.80451E+00	1.09278
2.80660E+00	1.09314
2.80861E+00	1.09349
2.81118E+00	1.09393
2.81359E+00	1.09434
2.81585E+00	1.09473
2.81797E+00	1.0951
2.81996E+00	1.09544
2.82183E+00	1.09576
2.82441E+00	1.09621
2.82677E+00	1.09661
2.82889E+00	1.09698
2.83085E+00	1.09731
2.83323E+00	1.09772
2.83532E+00	1.09808
2.83801E+00	1.09855
2.84016E+00	1.09892
2.84196E+00	1.09923
2.84397E+00	1.09957
2.84612E+00	1.09994
2.84871E+00	1.10039
2.85000E+00	1.10061
2.85230E+00	1.10183
2.85451E+00	1.103
2.85733E+00	1.10449
2.85998E+00	1.10589
2.86246E+00	1.10721
2.86479E+00	1.10844
2.86500E+00	1.10855
2.86698E+00	1.11001
2.87000E+00	1.11224
2.87003E+00	1.1123
2.87277E+00	1.11741
2.87528E+00	1.1221
2.87682E+00	1.12497
2.87971E+00	1.13036
2.88000E+00	1.13091
2.88200E+00	1.14024
2.88224E+00	1.14222
2.88400E+00	1.15702
2.88445E+00	1.16591
2.88600E+00	1.19643
2.88687E+00	1.2386
2.88700E+00	1.24807
2.88719E+00	1.27207
2.88724E+00	1.27974
2.88791E+00	1.3798
2.88800E+00	1.39999
2.88810E+00	1.43047
2.88820E+00	1.47102
2.88830E+00	1.52228
2.88838E+00	1.56907
2.88845E+00	1.62615
2.88850E+00	1.67199
2.88855E+00	1.72561
2.88860E+00	1.7885
2.88865E+00	1.86238
2.88870E+00	1.94915
2.88875E+00	2.05054
2.88880E+00	2.16736
2.88885E+00	2.29826
2.88895E+00	2.57524
2.88899E+00	2.66623
2.88901E+00	2.71605
2.88904E+00	2.75375
2.88906E+00	2.77651
2.88908E+00	2.7823
2.88910E+00	2.7775
2.88913E+00	2.75376
2.88915E+00	2.70988
2.88917E+00	2.64652
2.88920E+00	2.56536
2.88923E+00	2.46904
2.88926E+00	2.30355
2.88935E+00	1.88557
2.88937E+00	1.77314
2.88940E+00	1.66824
2.88943E+00	1.57219
2.88945E+00	1.48565
2.88948E+00	1.40877
2.88950E+00	1.3413
2.88952E+00	1.28267
2.88955E+00	1.23215
2.88957E+00	1.19051
2.88958E+00	1.1889
2.88960E+00	1.15208
2.88963E+00	1.12087
2.88966E+00	1.08293
2.88970E+00	1.0537
2.88974E+00	1.03133
2.88978E+00	1.01434
2.88983E+00	0.998014
2.88987E+00	0.986857
2.88995E+00	0.976469
2.89003E+00	0.971078
2.89011E+00	0.969909
2.89050E+00	0.978151
2.89100E+00	0.998122
2.89200E+00	1.02782
2.89218E+00	1.03042
2.89400E+00	1.05721
2.89413E+00	1.05815
2.89600E+00	1.07149
2.89706E+00	1.07557
2.89900E+00	1.083
2.90000E+00	1.08583
2.90310E+00	1.08901
2.90601E+00	1.09199
2.90874E+00	1.09479
2.91130E+00	1.09742
2.91371E+00	1.09989
2.91702E+00	1.10328
2.92006E+00	1.10641
2.92280E+00	1.10921
2.92531E+00	1.11179
2.92838E+00	1.11494
2.93108E+00	1.11771
2.93344E+00	1.12012
2.93647E+00	1.12323
2.93963E+00	1.12648
2.94222E+00	1.12914
2.94500E+00	1.13198
2.94750E+00	1.13455
2.95000E+00	1.13712
2.95310E+00	1.14143
2.95601E+00	1.14548
2.95874E+00	1.14928
2.96250E+00	1.15452
2.96596E+00	1.15934
2.96907E+00	1.16367
2.97193E+00	1.16764
2.97542E+00	1.17251
2.97848E+00	1.17677
2.98234E+00	1.18214
2.98557E+00	1.18663
2.98917E+00	1.19165
2.99289E+00	1.19683
2.99543E+00	1.20036
2.99847E+00	1.20461
3.00000E+00	1.20673
3.00155E+00	1.21398
3.00456E+00	1.22803
3.00500E+00	1.23011
3.00550E+00	1.2377
3.00600E+00	1.25197
3.00620E+00	1.26222
3.00640E+00	1.27904
3.00650E+00	1.29232
3.00660E+00	1.31262
3.00668E+00	1.33681
3.00673E+00	1.36135
3.00676E+00	1.38765
3.00679E+00	1.41092
3.00681E+00	1.44048
3.00684E+00	1.4781
3.00686E+00	1.52557
3.00689E+00	1.58432
3.00691E+00	1.65486
3.00694E+00	1.736
3.00700E+00	1.95544
3.00702E+00	2.0124
3.00704E+00	2.05789
3.00706E+00	2.0879
3.00707E+00	2.09766
3.00708E+00	2.09918
3.00709E+00	2.09523
3.00710E+00	2.08181
3.00711E+00	2.05904
3.00712E+00	2.02736
3.00714E+00	1.9649
3.00716E+00	1.88788
3.00719E+00	1.77061
3.00723E+00	1.55802
3.00725E+00	1.47505
3.00727E+00	1.40116
3.00729E+00	1.33779
3.00731E+00	1.28536
3.00732E+00	1.24345
3.00734E+00	1.21109
3.00736E+00	1.18694
3.00738E+00	1.1747
3.00738E+00	1.17415
3.00740E+00	1.1576
3.00743E+00	1.14786
3.00746E+00	1.1419
3.00748E+00	1.14126
3.00760E+00	1.14888
3.00780E+00	1.16415
3.00800E+00	1.17432
3.00840E+00	1.18656
3.00900E+00	1.19651
3.01000E+00	1.20531
3.01130E+00	1.21012
3.01484E+00	1.22315
3.01500E+00	1.22376
3.01808E+00	1.23155
3.02193E+00	1.24129
3.02542E+00	1.25013
3.02848E+00	1.25788
3.03242E+00	1.26783
3.03461E+00	1.27338
3.03845E+00	1.2831
3.04000E+00	1.28702
3.04241E+00	1.29438
3.04512E+00	1.30262
3.04837E+00	1.31253
3.05000E+00	1.31748
3.05310E+00	1.32693
3.05500E+00	1.33271
3.05738E+00	1.34052
3.06000E+00	1.34914
3.06130E+00	1.35422
3.06484E+00	1.36798
3.06808E+00	1.38062
3.07205E+00	1.3961
3.07553E+00	1.40965
3.08000E+00	1.42706
3.08000E+00	1.42708
3.08359E+00	1.44449
3.08659E+00	1.45909
3.08994E+00	1.47536
3.09353E+00	1.49281
3.09784E+00	1.51378
3.10000E+00	1.52428
3.10249E+00	1.53922
3.10686E+00	1.56541
3.11137E+00	1.59246
3.11445E+00	1.61092
3.11815E+00	1.6331
3.12000E+00	1.6442
3.12249E+00	1.66235
3.12686E+00	1.69415
3.13137E+00	1.72699
3.13630E+00	1.76287
3.14000E+00	1.78982
3.14249E+00	1.81135
3.14686E+00	1.84906
3.15155E+00	1.88953
3.15577E+00	1.92601
3.16000E+00	1.96253
3.16500E+00	2.01146
3.17000E+00	2.06046
3.17500E+00	2.10938
3.17500E+00	2.10942
3.18000E+00	2.16232
3.18437E+00	2.20856
3.18812E+00	2.24825
3.19000E+00	2.26811
3.19250E+00	2.298
3.19437E+00	2.32043
3.19718E+00	2.3541
3.20000E+00	2.3878
3.20100E+00	2.39977
3.20200E+00	2.41612
3.20300E+00	2.43246
3.20400E+00	2.44881
3.20450E+00	2.45699
3.20500E+00	2.46897
3.20600E+00	2.49293
3.20700E+00	2.52806
3.20800E+00	2.58422
3.20887E+00	2.67491
3.20900E+00	2.69369
3.20925E+00	2.75395
3.20988E+00	2.92271
3.21000E+00	2.96926
3.21012E+00	3.03656
3.21038E+00	3.19907
3.21047E+00	3.27377
3.21050E+00	3.30562
3.21056E+00	3.36936
3.21069E+00	3.52356
3.21091E+00	3.81655
3.21100E+00	3.95994
3.21110E+00	4.1396
3.21120E+00	4.34336
3.21130E+00	4.55648
3.21140E+00	4.76952
3.21150E+00	4.9581
3.21158E+00	5.07181
3.21160E+00	5.09857
3.21165E+00	5.15205
3.21170E+00	5.17867
3.21172E+00	5.19197
3.21175E+00	5.19557
3.21180E+00	5.18293
3.21182E+00	5.1766
3.21190E+00	5.11448
3.21198E+00	5.01422
3.21200E+00	4.97095
3.21205E+00	4.88443
3.21220E+00	4.57844
3.21240E+00	4.15751
3.21250E+00	3.96572
3.21260E+00	3.79314
3.21270E+00	3.64129
3.21280E+00	3.50908
3.21290E+00	3.395
3.21300E+00	3.29673
3.21315E+00	3.1746
3.21320E+00	3.14203
3.21330E+00	3.07691
3.21340E+00	3.02453
3.21345E+00	2.99834
3.21360E+00	2.93472
3.21380E+00	2.86757
3.21400E+00	2.81565
3.21420E+00	2.77724
3.21430E+00	2.75804
3.21440E+00	2.74478
3.21460E+00	2.71828
3.21480E+00	2.69897
3.21500E+00	2.67967
3.21600E+00	2.63049
3.21700E+00	2.61093
3.21800E+00	2.60479
3.21900E+00	2.60732
3.22000E+00	2.60985
3.22025E+00	2.61049
3.22200E+00	2.62363
3.22400E+00	2.63867
3.22600E+00	2.65749
3.22800E+00	2.67632
3.23000E+00	2.69515
3.23500E+00	2.74222
3.24000E+00	2.7893
3.24400E+00	2.82696
3.24500E+00	2.83638
3.25000E+00	2.87733
3.26000E+00	2.95923
3.26688E+00	3.00607
3.27000E+00	3.02728
3.28000E+00	3.08301
3.28500E+00	3.10313
3.29500E+00	3.14337
3.31000E+00	3.17774
3.32700E+00	3.19008
3.32800E+00	3.18935
3.34900E+00	3.17415
3.35000E+00	3.17253
3.37000E+00	3.14004
3.38525E+00	3.11526
3.40050E+00	3.08789
3.41000E+00	3.07651
3.42000E+00	3.06454
3.43000E+00	3.05261
3.43500E+00	3.0566
3.43563E+00	3.05719
3.43600E+00	3.06004
3.43700E+00	3.06794
3.43750E+00	3.07225
3.43800E+00	3.0885
3.43831E+00	3.12094
3.43841E+00	3.14365
3.43847E+00	3.17471
3.43850E+00	3.19998
3.43853E+00	3.22852
3.43859E+00	3.30507
3.43869E+00	3.44374
3.43887E+00	3.73703
3.43897E+00	3.86053
3.43900E+00	3.8912
3.43903E+00	3.91608
3.43913E+00	3.95923
3.43931E+00	3.99554
3.43942E+00	4.00054
3.43950E+00	3.98415
3.44000E+00	3.64311
3.44006E+00	3.6335
3.44012E+00	3.63701
3.44031E+00	3.68027
3.44044E+00	3.72421
3.44050E+00	3.76026
3.44053E+00	3.7785
3.44062E+00	3.85495
3.44081E+00	4.03698
3.44091E+00	4.13938
3.44100E+00	4.26652
3.44109E+00	4.42927
3.44125E+00	4.74704
3.44150E+00	5.26169
3.44158E+00	5.39485
3.44160E+00	5.42941
3.44165E+00	5.49843
3.44170E+00	5.5389
3.44173E+00	5.55905
3.44178E+00	5.57095
3.44180E+00	5.56489
3.44182E+00	5.55875
3.44187E+00	5.52294
3.44190E+00	5.49183
3.44195E+00	5.42947
3.44200E+00	5.34144
3.44203E+00	5.28636
3.44213E+00	5.08949
3.44237E+00	4.53026
3.44247E+00	4.34049
3.44250E+00	4.28809
3.44256E+00	4.18348
3.44269E+00	4.01641
3.44291E+00	3.76014
3.44300E+00	3.66917
3.44309E+00	3.59983
3.44331E+00	3.4808
3.44350E+00	3.39522
3.44369E+00	3.33813
3.44400E+00	3.26498
3.44438E+00	3.2098
3.44450E+00	3.19721
3.44475E+00	3.17209
3.44500E+00	3.15418
3.45000E+00	3.05524
3.45500E+00	3.03841
3.46000E+00	3.03272
3.46500E+00	3.02704
3.47000E+00	3.02137
3.47938E+00	3.01861
3.48000E+00	3.01843
3.50000E+00	3.01255
3.50393E+00	3.01415
3.52000E+00	3.0207
3.53990E+00	3.02882
3.54000E+00	3.02889
3.56000E+00	3.04298
3.57000E+00	3.05003
3.58000E+00	3.05708
3.59000E+00	3.06414
3.60000E+00	3.0712
3.61000E+00	3.07827
3.62000E+00	3.08079
3.63000E+00	3.08332
3.64000E+00	3.08159
3.64200E+00	3.08125
3.64400E+00	3.08092
3.64500E+00	3.0808
3.64520E+00	3.0808
3.64540E+00	3.08082
3.64560E+00	3.08088
3.64580E+00	3.08105
3.64600E+00	3.08164
3.64620E+00	3.08495
3.64630E+00	3.09155
3.64640E+00	3.09804
3.64660E+00	3.08267
3.64680E+00	3.08084
3.64700E+00	3.08026
3.64720E+00	3.07993
3.64740E+00	3.07967
3.64760E+00	3.07945
3.64780E+00	3.07925
3.64800E+00	3.07905
3.64900E+00	3.07811
3.65000E+00	3.0772
3.65300E+00	3.07449
3.66500E+00	3.06367
3.67500E+00	3.05467
3.67820E+00	3.05179
3.68500E+00	3.04206
3.69500E+00	3.02775
3.70000E+00	3.0206
3.71000E+00	3.00632
3.71500E+00	2.99919
3.72000E+00	2.99436
3.73000E+00	3.00264
3.74000E+00	3.0702
3.74500E+00	3.1708
3.75000E+00	3.40225
3.75375E+00	3.83672
3.75500E+00	3.98936
3.75625E+00	4.32291
3.76000E+00	5.34471
3.76100E+00	5.63008
3.76200E+00	5.82711
3.76275E+00	5.87583
3.76300E+00	5.88312
3.76375E+00	5.81294
3.76400E+00	5.78157
3.76500E+00	5.55015
3.76600E+00	5.24309
3.76750E+00	4.75715
3.76800E+00	4.6019
3.76900E+00	4.32367
3.77000E+00	4.08607
3.77200E+00	3.71949
3.77400E+00	3.46457
3.77600E+00	3.2855
3.77800E+00	3.15598
3.78000E+00	3.05992
3.78500E+00	2.90257
3.79000E+00	2.80694
3.79500E+00	2.7408
3.80000E+00	2.69016
3.81000E+00	2.61236
3.82000E+00	2.55021
3.83000E+00	2.49595
3.84000E+00	2.44887
3.85000E+00	2.40186
3.86000E+00	2.36203
3.87000E+00	2.32229
3.88000E+00	2.29044
3.89000E+00	2.25871
3.89500E+00	2.24291
3.90000E+00	2.23124
3.92000E+00	2.185
3.94000E+00	2.15379
3.96000E+00	2.12924
3.97000E+00	2.1177
3.98000E+00	2.10308
3.99000E+00	2.08965
4.00000E+00	2.0745
4.01000E+00	2.02173
4.02000E+00	1.93937
4.03000E+00	1.81897
4.04000E+00	1.66213
4.05000E+00	1.4909
4.06000E+00	1.34238
4.07000E+00	1.24172
4.08000E+00	1.18671
4.09000E+00	1.16201
4.10000E+00	1.1546
4.11000E+00	1.16077
4.12000E+00	1.18683
4.13000E+00	1.24749
4.14000E+00	1.36294
4.15000E+00	1.54814
4.16000E+00	1.78881
4.16250E+00	1.84835
4.16500E+00	1.90932
4.17000E+00	2.01942
4.17444E+00	2.09875
4.17500E+00	2.10879
4.18000E+00	2.17186
4.18500E+00	2.20718
4.19000E+00	2.21691
4.19500E+00	2.20498
4.20000E+00	2.17642
4.20389E+00	2.14482
4.20500E+00	2.13575
4.21000E+00	2.08656
4.21500E+00	2.03016
4.22000E+00	1.9741
4.22500E+00	1.9132
4.23000E+00	1.85272
4.23500E+00	1.79269
4.24000E+00	1.73313
4.24500E+00	1.67406
4.25000E+00	1.6155
4.25500E+00	1.55748
4.26000E+00	1.50329
4.26500E+00	1.4542
4.27000E+00	1.41434
4.27500E+00	1.39166
4.28000E+00	1.39989
4.28500E+00	1.46024
4.29000E+00	1.59724
4.29500E+00	1.81931
4.30000E+00	2.10096
4.30125E+00	2.17147
4.30500E+00	2.38669
4.31000E+00	2.63685
4.31500E+00	2.82733
4.32000E+00	2.94917
4.32200E+00	2.97607
4.32300E+00	2.98927
4.32500E+00	3.00109
4.32600E+00	3.00676
4.32800E+00	3.00723
4.33000E+00	2.99747
4.33063E+00	2.99438
4.33500E+00	2.95445
4.34000E+00	2.88338
4.34500E+00	2.79685
4.35000E+00	2.71116
4.35500E+00	2.62632
4.36000E+00	2.54228
4.37000E+00	2.39452
4.38000E+00	2.27022
4.39000E+00	2.16649
4.40000E+00	2.08002
4.41000E+00	2.00827
4.41505E+00	1.97882
4.42000E+00	1.9499
4.43000E+00	1.90495
4.44000E+00	1.87669
4.44500E+00	1.87115
4.44619E+00	1.8716
4.44750E+00	1.87211
4.45000E+00	1.87472
4.45500E+00	1.88283
4.46000E+00	1.88554
4.46200E+00	1.86895
4.46400E+00	1.82378
4.46600E+00	1.73315
4.46800E+00	1.59583
4.47000E+00	1.44993
4.47150E+00	1.36882
4.47200E+00	1.34384
4.47425E+00	1.29642
4.47500E+00	1.28222
4.48000E+00	1.29625
4.48500E+00	1.32624
4.49000E+00	1.34418
4.49500E+00	1.35087
4.50000E+00	1.34954
4.50500E+00	1.34219
4.50562E+00	1.34137
4.51000E+00	1.33134
4.51500E+00	1.321
4.52000E+00	1.31776
4.52100E+00	1.32196
4.52200E+00	1.32649
4.52225E+00	1.32773
4.52300E+00	1.33572
4.52350E+00	1.34134
4.52400E+00	1.34867
4.52500E+00	1.37064
4.52600E+00	1.40451
4.52700E+00	1.45658
4.52775E+00	1.51513
4.52800E+00	1.53692
4.52875E+00	1.62687
4.52900E+00	1.66025
4.52950E+00	1.75
4.52987E+00	1.82015
4.53000E+00	1.8463
4.53050E+00	1.97595
4.53100E+00	2.11278
4.53150E+00	2.2792
4.53200E+00	2.44862
4.53288E+00	2.73984
4.53300E+00	2.77654
4.53325E+00	2.83018
4.53387E+00	2.94728
4.53400E+00	2.96099
4.53406E+00	2.96699
4.53422E+00	2.96787
4.53487E+00	2.95285
4.53500E+00	2.94478
4.53525E+00	2.90974
4.53600E+00	2.78288
4.53700E+00	2.57786
4.53750E+00	2.47726
4.53800E+00	2.38103
4.53900E+00	2.21856
4.54000E+00	2.08951
4.54375E+00	1.82304
4.54500E+00	1.73699
4.55000E+00	1.59329
4.55500E+00	1.51762
4.56000E+00	1.46974
4.56500E+00	1.43574
4.57000E+00	1.40957
4.57500E+00	1.38849
4.58000E+00	1.37234
4.58500E+00	1.35707
4.59000E+00	1.34834
4.59100E+00	1.34721
4.59200E+00	1.34647
4.59300E+00	1.34625
4.59400E+00	1.34776
4.59500E+00	1.35037
4.59600E+00	1.3546
4.59700E+00	1.36125
4.59800E+00	1.3714
4.59900E+00	1.38608
4.59975E+00	1.40083
4.60000E+00	1.40734
4.60112E+00	1.4349
4.60150E+00	1.43923
4.60200E+00	1.43857
4.60250E+00	1.43117
4.60350E+00	1.40431
4.60450E+00	1.37658
4.60456E+00	1.37515
4.60500E+00	1.36455
4.61000E+00	1.31961
4.61500E+00	1.3117
4.62000E+00	1.31976
4.62500E+00	1.35429
4.62600E+00	1.36857
4.62700E+00	1.38385
4.62800E+00	1.40627
4.62850E+00	1.41835
4.62900E+00	1.43338
4.62950E+00	1.44959
4.63000E+00	1.46765
4.63100E+00	1.51407
4.63200E+00	1.57539
4.63300E+00	1.65689
4.63400E+00	1.7636
4.63500E+00	1.89768
4.63600E+00	2.04865
4.63700E+00	2.17997
4.63704E+00	2.18224
4.63775E+00	2.222
4.63800E+00	2.23103
4.63825E+00	2.21801
4.63875E+00	2.18388
4.63900E+00	2.16392
4.64000E+00	2.01179
4.64484E+00	1.42422
4.64500E+00	1.40806
4.64531E+00	1.39536
4.65000E+00	1.25229
4.65500E+00	1.19949
4.66000E+00	1.17293
4.66500E+00	1.15532
4.67000E+00	1.14242
4.67500E+00	1.13017
4.68000E+00	1.11828
4.68500E+00	1.10827
4.69000E+00	1.09841
4.69500E+00	1.08864
4.70000E+00	1.07895
4.71000E+00	1.05973
4.72000E+00	1.04067
4.72500E+00	1.03121
4.73000E+00	1.02263
4.74000E+00	1.00563
4.74500E+00	0.997231
4.75000E+00	0.990549
4.75500E+00	0.983959
4.76000E+00	0.977449
4.76500E+00	0.974134
4.77000E+00	0.970942
4.77500E+00	0.971367
4.78000E+00	0.975568
4.78500E+00	0.985067
4.79000E+00	1.00198
4.79500E+00	1.02931
4.80000E+00	1.07125
4.80500E+00	1.13299
4.81000E+00	1.2208
4.81500E+00	1.34022
4.82000E+00	1.49157
4.82500E+00	1.66283
4.82875E+00	1.7907
4.83000E+00	1.83257
4.83200E+00	1.89052
4.83400E+00	1.93964
4.83600E+00	1.97853
4.83800E+00	2.00598
4.84000E+00	2.02192
4.84200E+00	2.02678
4.84500E+00	2.01561
4.85000E+00	1.95979
4.85500E+00	1.87823
4.86000E+00	1.79019
4.86250E+00	1.74652
4.87000E+00	1.62079
4.88000E+00	1.48574
4.89000E+00	1.38163
4.90000E+00	1.30043
4.91000E+00	1.23592
4.92000E+00	1.18346
4.93000E+00	1.14022
4.93866E+00	1.10896
4.94000E+00	1.10414
4.95000E+00	1.07428
4.96000E+00	1.04996
4.97000E+00	1.03171
4.97350E+00	1.02762
4.98000E+00	1.02003
4.99000E+00	1.01685
5.00000E+00	1.02441
5.01000E+00	1.04618
5.02000E+00	1.08594
5.03000E+00	1.14785
5.04000E+00	1.23295
5.05000E+00	1.33779
5.06000E+00	1.44903
5.07000E+00	1.55113
5.08000E+00	1.63775
5.09000E+00	1.71398
5.10000E+00	1.80956
5.10200E+00	1.83769
5.10300E+00	1.85196
5.10400E+00	1.86947
5.10600E+00	1.90497
5.10800E+00	1.94955
5.11000E+00	2.00332
5.11200E+00	2.06852
5.11400E+00	2.14801
5.11500E+00	2.19555
5.11550E+00	2.21949
5.11600E+00	2.24675
5.11700E+00	2.30162
5.11800E+00	2.36544
5.11850E+00	2.39756
5.11900E+00	2.4338
5.12000E+00	2.50671
5.12100E+00	2.58969
5.12150E+00	2.6314
5.12200E+00	2.67783
5.12300E+00	2.7711
5.12500E+00	2.96958
5.12550E+00	3.01933
5.12700E+00	3.1685
5.12750E+00	3.21806
5.12800E+00	3.26193
5.12850E+00	3.30551
5.12900E+00	3.34242
5.12950E+00	3.3789
5.13000E+00	3.41045
5.13100E+00	3.45428
5.13200E+00	3.47341
5.13300E+00	3.46584
5.13400E+00	3.43193
5.13500E+00	3.37376
5.13600E+00	3.29494
5.13700E+00	3.20022
5.13800E+00	3.09081
5.14200E+00	2.65142
5.14400E+00	2.45294
5.14600E+00	2.2814
5.14800E+00	2.13635
5.15000E+00	2.01538
5.15500E+00	1.79231
5.16000E+00	1.64583
5.16500E+00	1.54469
5.17000E+00	1.47132
5.18000E+00	1.37094
5.19000E+00	1.30343
5.20000E+00	1.25319
5.21000E+00	1.21314
5.22000E+00	1.17962
5.23000E+00	1.15055
5.24000E+00	1.12602
5.25000E+00	1.10179
5.26000E+00	1.08218
5.27000E+00	1.06275
5.27500E+00	1.05309
5.28000E+00	1.04513
5.29000E+00	1.02927
5.30000E+00	1.02139
5.30750E+00	1.11563
5.31000E+00	1.14556
5.31250E+00	1.09727
5.31875E+00	0.972269
5.32000E+00	0.94866
5.32750E+00	0.977625
5.32984E+00	0.987559
5.33000E+00	0.990924
5.33023E+00	1.0035
5.33438E+00	1.27974
5.33984E+00	1.64403
5.34000E+00	1.64989
5.34023E+00	1.64671
5.34984E+00	1.30627
5.35000E+00	1.29971
5.35500E+00	1.09133
5.36000E+00	1.01876
5.36500E+00	0.9813
5.36600E+00	0.974921
5.36700E+00	0.96936
5.36800E+00	0.965072
5.36900E+00	0.962821
5.37000E+00	0.963922
5.37100E+00	0.970511
5.37200E+00	0.989748
5.37300E+00	1.02866
5.37400E+00	1.07775
5.37500E+00	1.10133
5.37750E+00	1.0613
5.38000E+00	1.01914
5.38500E+00	0.982947
5.39000E+00	0.965688
5.39500E+00	0.955547
5.39750E+00	0.950847
5.40000E+00	0.947739
5.41000E+00	0.936107
5.42000E+00	0.929312
5.43000E+00	0.926477
5.43500E+00	0.925101
5.44000E+00	0.924661
5.45000E+00	0.926715
5.46000E+00	0.932058
5.47000E+00	0.941203
5.48000E+00	0.954761
5.49000E+00	0.973554
5.50000E+00	0.998488
5.51000E+00	1.03052
5.52000E+00	1.07089
5.53000E+00	1.12053
5.54000E+00	1.18017
5.55000E+00	1.24982
5.56000E+00	1.32879
5.57000E+00	1.41607
5.58000E+00	1.50351
5.59000E+00	1.59232
5.60000E+00	1.67244
5.60750E+00	1.72342
5.61000E+00	1.73754
5.61500E+00	1.76582
5.62000E+00	1.78606
5.62250E+00	1.7962
5.63000E+00	1.81649
5.63500E+00	1.82196
5.63730E+00	1.82449
5.63954E+00	1.8255
5.63980E+00	1.82562
5.64000E+00	1.82546
5.64184E+00	1.82406
5.64500E+00	1.82166
5.64750E+00	1.81982
5.65000E+00	1.81602
5.65500E+00	1.80862
5.66000E+00	1.79568
5.66500E+00	1.7833
5.67000E+00	1.76721
5.67500E+00	1.75311
5.67800E+00	1.74664
5.68000E+00	1.74026
5.68500E+00	1.72483
5.69000E+00	1.69536
5.69500E+00	1.65696
5.70000E+00	1.62788
5.70500E+00	1.60286
5.71000E+00	1.57963
5.71500E+00	1.55718
5.72000E+00	1.5351
5.72500E+00	1.51319
5.73000E+00	1.49139
5.73500E+00	1.47184
5.74000E+00	1.45233
5.75000E+00	1.41337
5.75500E+00	1.39617
5.76500E+00	1.36176
5.77000E+00	1.34459
5.77500E+00	1.32963
5.78000E+00	1.31468
5.79000E+00	1.28483
5.79500E+00	1.27196
5.80000E+00	1.25908
5.81000E+00	1.2334
5.81500E+00	1.22262
5.82000E+00	1.21187
5.82500E+00	1.20115
5.83000E+00	1.19047
5.83500E+00	1.18188
5.84000E+00	1.17335
5.84500E+00	1.16489
5.85000E+00	1.15851
5.85500E+00	1.15224
5.86000E+00	1.14922
5.86500E+00	1.14639
5.86750E+00	1.14511
5.87000E+00	1.14498
5.87500E+00	1.14783
5.88000E+00	1.1551
5.88402E+00	1.16595
5.88500E+00	1.16861
5.89000E+00	1.19174
5.89500E+00	1.22962
5.90000E+00	1.29183
5.90500E+00	1.39426
5.90800E+00	1.48439
5.91000E+00	1.56587
5.91200E+00	1.66404
5.91500E+00	1.84683
5.91600E+00	1.91834
5.91700E+00	1.99678
5.91875E+00	2.13493
5.91900E+00	2.15511
5.92000E+00	2.23593
5.92100E+00	2.31639
5.92200E+00	2.38858
5.92300E+00	2.45029
5.92400E+00	2.49782
5.92500E+00	2.52788
5.92600E+00	2.53816
5.92700E+00	2.52762
5.92800E+00	2.49737
5.92900E+00	2.44929
5.93000E+00	2.38634
5.93500E+00	1.98142
5.94000E+00	1.62703
5.94500E+00	1.38616
5.95000E+00	1.22605
5.95500E+00	1.11378
5.96000E+00	1.0281
5.96500E+00	0.956447
5.97000E+00	0.891928
5.97250E+00	0.860199
5.97500E+00	0.829268
5.98000E+00	0.777221
5.98200E+00	0.766763
5.98387E+00	0.7707
5.98400E+00	0.771937
5.98462E+00	0.77806
5.98500E+00	0.782892
5.98575E+00	0.798003
5.98600E+00	0.804217
5.98775E+00	0.872716
5.98800E+00	0.884442
5.98850E+00	0.919137
5.98950E+00	0.992256
5.99000E+00	1.03062
5.99050E+00	1.08149
5.99200E+00	1.23989
5.99400E+00	1.4621
5.99500E+00	1.55395
5.99600E+00	1.62309
5.99700E+00	1.66801
5.99800E+00	1.69054
5.99900E+00	1.69496
6.00000E+00	1.68596
6.00100E+00	1.66779
6.00200E+00	1.64247
6.00300E+00	1.61723
6.00400E+00	1.58989
6.00600E+00	1.5353
6.00700E+00	1.50803
6.00900E+00	1.45945
6.01100E+00	1.41652
6.01200E+00	1.39665
6.01500E+00	1.34569
6.01600E+00	1.33172
6.01800E+00	1.30374
6.02000E+00	1.28001
6.02500E+00	1.23131
6.03000E+00	1.19396
6.03500E+00	1.16474
6.04000E+00	1.1418
6.04500E+00	1.12371
6.05000E+00	1.11086
6.05200E+00	1.10591
6.05500E+00	1.1024
6.05800E+00	1.09953
6.06000E+00	1.10013
6.06100E+00	1.10073
6.06200E+00	1.10267
6.06400E+00	1.10719
6.06600E+00	1.11736
6.06750E+00	1.12624
6.06800E+00	1.1313
6.07000E+00	1.15449
6.07100E+00	1.17277
6.07150E+00	1.18282
6.07200E+00	1.19509
6.07250E+00	1.20866
6.07300E+00	1.22471
6.07350E+00	1.2426
6.07400E+00	1.26227
6.07500E+00	1.31283
6.07600E+00	1.37775
6.07700E+00	1.45525
6.07800E+00	1.53992
6.07875E+00	1.58857
6.07900E+00	1.60227
6.07975E+00	1.60901
6.08000E+00	1.60729
6.08003E+00	1.60582
6.08050E+00	1.56774
6.08200E+00	1.43929
6.08400E+00	1.2423
6.08475E+00	1.19005
6.08500E+00	1.17411
6.08600E+00	1.12591
6.08800E+00	1.06502
6.09000E+00	1.03082
6.09200E+00	1.0104
6.09400E+00	0.997955
6.09600E+00	0.987712
6.09800E+00	0.981517
6.10000E+00	0.976262
6.10200E+00	0.971655
6.10400E+00	0.967512
6.10600E+00	0.963712
6.10800E+00	0.960951
6.11000E+00	0.958391
6.11500E+00	0.952617
6.12000E+00	0.947445
6.12500E+00	0.942659
6.13000E+00	0.93814
6.14000E+00	0.931498
6.15000E+00	0.925258
6.16000E+00	0.921416
6.17000E+00	0.917575
6.17500E+00	0.915533
6.18000E+00	0.914761
6.19000E+00	0.912834
6.20000E+00	0.910405
6.21000E+00	0.909694
6.22000E+00	0.908409
6.22500E+00	0.907568
6.23000E+00	0.906605
6.24000E+00	0.904385
6.25000E+00	0.902695
6.26000E+00	0.896259
6.27000E+00	0.894139
6.27217E+00	0.893292
6.27220E+00	0.893281
6.27225E+00	0.893255
6.27500E+00	0.893757
6.28000E+00	0.89354
6.29000E+00	0.894579
6.30000E+00	0.896197
6.30200E+00	0.896342
6.30400E+00	0.896711
6.30600E+00	0.897613
6.30800E+00	0.898942
6.31000E+00	0.90027
6.31400E+00	0.902383
6.31600E+00	0.90477
6.31800E+00	0.907212
6.32200E+00	0.912096
6.32400E+00	0.91587
6.32500E+00	0.917636
6.32800E+00	0.922936
6.33000E+00	0.926771
6.33200E+00	0.931041
6.33600E+00	0.94004
6.33800E+00	0.944539
6.34000E+00	0.949182
6.34200E+00	0.954242
6.34400E+00	0.95969
6.34600E+00	0.965138
6.35200E+00	0.986682
6.35400E+00	0.996946
6.35600E+00	1.00735
6.35800E+00	1.01826
6.35900E+00	1.02419
6.36000E+00	1.0307
6.36200E+00	1.04473
6.36400E+00	1.05876
6.36600E+00	1.07603
6.36800E+00	1.09302
6.37000E+00	1.11159
6.37200E+00	1.13106
6.37500E+00	1.16153
6.37600E+00	1.17172
6.37800E+00	1.19573
6.38000E+00	1.22427
6.38200E+00	1.25387
6.38400E+00	1.2867
6.38800E+00	1.34933
6.39100E+00	1.39432
6.39200E+00	1.40799
6.39400E+00	1.42783
6.39550E+00	1.44271
6.39600E+00	1.44636
6.39800E+00	1.45566
6.40000E+00	1.45947
6.40100E+00	1.46112
6.40200E+00	1.46158
6.40400E+00	1.45376
6.40500E+00	1.44428
6.40600E+00	1.43071
6.40800E+00	1.39544
6.41000E+00	1.35165
6.41200E+00	1.30595
6.41400E+00	1.26308
6.41600E+00	1.21902
6.41800E+00	1.17881
6.42000E+00	1.1417
6.42200E+00	1.10786
6.42500E+00	1.05711
6.42600E+00	1.04128
6.42800E+00	1.00981
6.43000E+00	0.980349
6.43088E+00	0.967092
6.43100E+00	0.96537
6.43200E+00	0.952007
6.43400E+00	0.924461
6.43600E+00	0.898979
6.43800E+00	0.874476
6.43900E+00	0.862445
6.44000E+00	0.851571
6.44200E+00	0.830242
6.44400E+00	0.812428
6.44600E+00	0.797444
6.44800E+00	0.782839
6.45000E+00	0.770538
6.45160E+00	0.760921
6.45210E+00	0.758378
6.45215E+00	0.758158
6.45400E+00	0.749274
6.45600E+00	0.739928
6.45800E+00	0.730933
6.46000E+00	0.722277
6.46200E+00	0.713951
6.46400E+00	0.705956
6.46600E+00	0.698949
6.46800E+00	0.692249
6.47000E+00	0.68585
6.47200E+00	0.679743
6.47500E+00	0.671112
6.47800E+00	0.663114
6.48000E+00	0.657675
6.48400E+00	0.647329
6.48600E+00	0.642401
6.48800E+00	0.63767
6.49000E+00	0.633161
6.49200E+00	0.6289
6.49400E+00	0.624911
6.49600E+00	0.622941
6.49800E+00	0.621294
6.50000E+00	0.622152
6.50100E+00	0.622695
6.50200E+00	0.62365
6.50400E+00	0.626774
6.50600E+00	0.629899
6.50800E+00	0.633023
6.50930E+00	0.635053
6.51000E+00	0.636474
6.51200E+00	0.640533
6.51400E+00	0.644591
6.51646E+00	0.649585
6.51660E+00	0.649987
6.51800E+00	0.653588
6.52000E+00	0.658573
6.52200E+00	0.663558
6.52400E+00	0.668543
6.52500E+00	0.671036
6.52600E+00	0.673828
6.52800E+00	0.679431
6.53000E+00	0.685055
6.53200E+00	0.6907
6.53400E+00	0.696362
6.53600E+00	0.70204
6.53800E+00	0.708464
6.54000E+00	0.7149
6.54200E+00	0.721345
6.54400E+00	0.727799
6.54600E+00	0.73426
6.54800E+00	0.740721
6.55000E+00	0.747845
6.55200E+00	0.754907
6.55400E+00	0.76197
6.55600E+00	0.769024
6.55800E+00	0.776077
6.56000E+00	0.783119
6.56200E+00	0.790151
6.56400E+00	0.797743
6.56600E+00	0.805113
6.56800E+00	0.812467
6.57000E+00	0.819802
6.57200E+00	0.826861
6.57400E+00	0.834632
6.57500E+00	0.838509
6.57600E+00	0.842538
6.57800E+00	0.850331
6.58000E+00	0.858124
6.58200E+00	0.86559
6.58400E+00	0.873743
6.58600E+00	0.881556
6.58800E+00	0.888913
6.59000E+00	0.89627
6.59200E+00	0.903132
6.59400E+00	0.909983
6.59600E+00	0.915043
6.59800E+00	0.920102
6.60000E+00	0.925153
6.60200E+00	0.928347
6.60400E+00	0.931542
6.60800E+00	0.937916
6.61000E+00	0.941103
6.61400E+00	0.947225
6.61600E+00	0.949789
6.62000E+00	0.954904
6.62200E+00	0.957461
6.62400E+00	0.960019
6.62500E+00	0.961295
6.62600E+00	0.962626
6.62800E+00	0.965289
6.63000E+00	0.967944
6.63200E+00	0.970769
6.63400E+00	0.972776
6.63600E+00	0.974783
6.63800E+00	0.976791
6.64000E+00	0.97899
6.64200E+00	0.981189
6.64400E+00	0.981714
6.64600E+00	0.982238
6.64800E+00	0.982763
6.65000E+00	0.983288
6.65200E+00	0.985939
6.65400E+00	0.988594
6.65600E+00	0.994907
6.65800E+00	1.00123
6.66000E+00	1.00942
6.66200E+00	1.01762
6.66400E+00	1.02582
6.66600E+00	1.03684
6.66800E+00	1.05045
6.67000E+00	1.06415
6.67200E+00	1.07787
6.67300E+00	1.08473
6.67400E+00	1.09011
6.67450E+00	1.09281
6.67500E+00	1.09452
6.67594E+00	1.09309
6.67600E+00	1.09247
6.67800E+00	1.07289
6.68000E+00	1.0533
6.68200E+00	1.04466
6.68400E+00	1.03601
6.68500E+00	1.03169
6.68600E+00	1.02872
6.68800E+00	1.02277
6.69000E+00	1.01683
6.69200E+00	1.011
6.69400E+00	1.00664
6.69600E+00	1.00227
6.69800E+00	0.999867
6.70000E+00	0.997463
6.71000E+00	0.993334
6.72000E+00	0.997699
6.72500E+00	1.00298
6.73000E+00	1.01083
6.74000E+00	1.03148
6.75000E+00	1.05742
6.76000E+00	1.08865
6.77000E+00	1.12727
6.77500E+00	1.14932
6.78000E+00	1.17379
6.79000E+00	1.24473
6.79500E+00	1.29905
6.80000E+00	1.35988
6.80500E+00	1.42951
6.81000E+00	1.50364
6.82000E+00	1.56375
6.82500E+00	1.46342
6.83000E+00	1.34819
6.84000E+00	1.14031
6.85000E+00	1.00284
6.86000E+00	0.943559
6.87500E+00	0.893673
6.88000E+00	0.88282
6.90000E+00	0.856562
6.91875E+00	0.8409
6.92500E+00	0.838633
6.94000E+00	0.837181
6.95000E+00	0.838459
6.96000E+00	0.843256
6.97500E+00	0.859977
6.98000E+00	0.867811
7.00000E+00	0.909351
7.02500E+00	0.965949
7.04500E+00	1.0078
7.05500E+00	1.0233
7.06000E+00	1.02743
7.06563E+00	1.02642
7.07500E+00	1.0163
7.07750E+00	1.01474
7.09000E+00	1.00711
7.10000E+00	1.00367
7.12000E+00	1.01177
7.12500E+00	1.01622
7.14000E+00	1.02843
7.15000E+00	1.04731
7.16000E+00	1.0765
7.17000E+00	1.14327
7.17500E+00	1.19717
7.18000E+00	1.27773
7.19000E+00	1.50557
7.20000E+00	1.75336
7.21000E+00	1.68695
7.22000E+00	1.56764
7.22500E+00	1.51753
7.23000E+00	1.46854
7.24000E+00	1.37951
7.25000E+00	1.31515
7.26000E+00	1.29149
7.27500E+00	1.27636
7.28000E+00	1.27186
7.30000E+00	1.27794
7.31953E+00	1.33429
7.32109E+00	1.34297
7.32500E+00	1.36881
7.33000E+00	1.37627
7.33500E+00	1.36696
7.35170E+00	1.31438
7.35330E+00	1.30813
7.36000E+00	1.28044
7.36500E+00	1.23615
7.37000E+00	1.17635
7.37500E+00	1.23591
7.38000E+00	1.29952
7.41000E+00	1.24693
7.42000E+00	1.2303
7.42500E+00	1.22419
7.47500E+00	1.15296
7.50000E+00	1.11937
7.51875E+00	1.1302
7.52500E+00	1.12905
7.55000E+00	1.11871
7.56560E+00	1.11888
7.56560E+00	1.11888
7.57500E+00	1.11759
7.60000E+00	1.11066
7.61250E+00	1.11901
7.61359E+00	1.12018
7.62500E+00	1.13242
7.65000E+00	1.1718
7.67500E+00	1.21285
7.70000E+00	1.25489
7.72500E+00	1.29985
7.76000E+00	1.3598
7.77500E+00	1.38148
7.78000E+00	1.3886
7.82500E+00	1.44708
7.85000E+00	1.47105
7.86000E+00	1.4735
7.87500E+00	1.44886
7.88000E+00	1.42935
7.90000E+00	1.32791
7.91000E+00	1.27662
7.92000E+00	1.22453
7.92500E+00	1.19567
7.95000E+00	1.04623
7.96000E+00	0.992533
7.97500E+00	0.929441
7.98000E+00	0.912253
8.00000E+00	0.865396
8.01875E+00	0.854321
8.02500E+00	0.854284
8.04000E+00	0.864359
8.06000E+00	0.895179
8.07500E+00	0.929323
8.08000E+00	0.941822
8.10000E+00	0.995728
8.12500E+00	1.07645
8.15000E+00	1.16249
8.17500E+00	1.2311
8.20000E+00	1.2834
8.22500E+00	1.32617
8.23250E+00	1.33715
8.24000E+00	1.34734
8.25000E+00	1.35606
8.27500E+00	1.3614
8.28000E+00	1.36101
8.30000E+00	1.35361
8.32000E+00	1.34014
8.32500E+00	1.33563
8.35000E+00	1.30815
8.35500E+00	1.30274
8.37500E+00	1.27708
8.40000E+00	1.24521
8.42500E+00	1.22115
8.43750E+00	1.21047
8.45000E+00	1.19915
8.47500E+00	1.1734
8.50000E+00	1.14676
8.52000E+00	1.13265
8.52500E+00	1.13102
8.54000E+00	1.12681
8.55000E+00	1.12656
8.55750E+00	1.12715
8.57500E+00	1.1328
8.60000E+00	1.15659
8.62000E+00	1.18962
8.62500E+00	1.19944
8.64500E+00	1.23753
8.65000E+00	1.24759
8.67500E+00	1.30236
8.70000E+00	1.3609
8.72000E+00	1.40216
8.72500E+00	1.41028
8.74000E+00	1.42788
8.74500E+00	1.4313
8.75000E+00	1.43375
8.76000E+00	1.43396
8.77500E+00	1.42341
8.78000E+00	1.41646
8.80000E+00	1.37771
8.82500E+00	1.3194
8.87500E+00	1.20931
8.90000E+00	1.15824
8.92000E+00	1.13521
8.92500E+00	1.13591
8.92750E+00	1.13765
8.94000E+00	1.1437
8.95000E+00	1.15053
8.96000E+00	1.17995
8.97500E+00	1.18818
8.97750E+00	1.18934
8.98350E+00	1.1948
8.98700E+00	1.19864
9.00000E+00	1.2232
9.02000E+00	1.25701
9.02500E+00	1.27455
9.04000E+00	1.33965
9.05000E+00	1.36783
9.07500E+00	1.28987
9.07969E+00	1.27266
9.10000E+00	1.24421
9.12500E+00	1.20483
9.14000E+00	1.18187
9.17500E+00	1.13472
9.18000E+00	1.12879
9.20000E+00	1.10814
9.22500E+00	1.096
9.24800E+00	1.09074
9.27400E+00	1.09164
9.27500E+00	1.09202
9.30000E+00	1.10225
9.32500E+00	1.13106
9.35000E+00	1.16527
9.37500E+00	1.19303
9.40000E+00	1.21113
9.42362E+00	1.19833
9.42500E+00	1.19809
9.43138E+00	1.19637
9.43150E+00	1.19631
9.47414E+00	1.1997
9.47500E+00	1.19977
9.50000E+00	1.20139
9.52500E+00	1.20307
9.57500E+00	1.20656
9.58125E+00	1.20634
9.60000E+00	1.20787
9.62500E+00	1.21935
9.65000E+00	1.23472
9.67500E+00	1.25169
9.70000E+00	1.27322
9.72500E+00	1.29142
9.74335E+00	1.3018
9.76250E+00	1.31263
9.77500E+00	1.31844
9.80000E+00	1.32255
9.82500E+00	1.31481
9.86250E+00	1.29897
9.87500E+00	1.29311
9.90000E+00	1.28148
9.92500E+00	1.27519
9.95000E+00	1.28135
9.97500E+00	1.29784
1.00000E+01	1.31485
1.00500E+01	1.35057
1.01000E+01	1.38648
1.01220E+01	1.40025
1.01500E+01	1.41389
1.01895E+01	1.42675
1.01960E+01	1.42886
1.02020E+01	1.43016
1.02445E+01	1.42487
1.02445E+01	1.42487
1.02450E+01	1.42481
1.02500E+01	1.42273
1.03000E+01	1.39869
1.03500E+01	1.36277
1.03720E+01	1.34209
1.03722E+01	1.34192
1.04000E+01	1.31759
1.04500E+01	1.29234
1.04503E+01	1.29221
1.04650E+01	1.28635
1.05000E+01	1.27488
1.05275E+01	1.26732
1.05280E+01	1.26718
1.05500E+01	1.2585
1.05542E+01	1.25688
1.05602E+01	1.25361
1.05630E+01	1.25221
1.06000E+01	1.22735
1.06500E+01	1.21136
1.06670E+01	1.20972
1.06671E+01	1.20973
1.06785E+01	1.21043
1.06900E+01	1.21486
1.07000E+01	1.22526
1.07100E+01	1.2271
1.07200E+01	1.20076
1.07300E+01	1.14511
1.07487E+01	1.18994
1.07500E+01	1.1925
1.07600E+01	1.21227
1.07750E+01	1.23756
1.07800E+01	1.24526
1.08250E+01	1.30304
1.08300E+01	1.3089
1.08400E+01	1.31626
1.08500E+01	1.31961
1.08650E+01	1.3188
1.08800E+01	1.31735
1.08989E+01	1.32302
1.09000E+01	1.32335
1.09200E+01	1.33381
1.09300E+01	1.34723
1.09400E+01	1.37775
1.09500E+01	1.41914
1.09600E+01	1.46563
1.09700E+01	1.49537
1.09950E+01	1.50602
1.10000E+01	1.50908
1.10090E+01	1.52049
1.10500E+01	1.57996
1.11000E+01	1.65629
1.11301E+01	1.68805
1.11500E+01	1.70907
1.12000E+01	1.70469
1.12086E+01	1.70001
1.12500E+01	1.67747
1.13000E+01	1.64989
1.13500E+01	1.63159
1.14000E+01	1.62859
1.14500E+01	1.66647
1.15000E+01	1.70538
1.15200E+01	1.71874
1.15500E+01	1.73396
1.16000E+01	1.74494
1.16430E+01	1.73537
1.16480E+01	1.73326
1.16500E+01	1.73255
1.17000E+01	1.71184
1.17494E+01	1.69943
1.17500E+01	1.70035
1.17787E+01	1.73506
1.17790E+01	1.73543
1.17985E+01	1.73921
1.18000E+01	1.73877
1.18500E+01	1.70508
1.19000E+01	1.67338
1.19500E+01	1.6663
1.19525E+01	1.66586
1.19700E+01	1.66834
1.20000E+01	1.64868
1.20219E+01	1.62522
1.20500E+01	1.59512
1.21100E+01	1.53342
1.21500E+01	1.49706
1.21610E+01	1.48684
1.21915E+01	1.47838
1.22000E+01	1.47603
1.22500E+01	1.49402
1.23000E+01	1.51163
1.23375E+01	1.52075
1.23500E+01	1.52287
1.23635E+01	1.52411
1.24500E+01	1.53205
1.25000E+01	1.53716
1.25379E+01	1.54032
1.25500E+01	1.54133
1.26000E+01	1.54221
1.26258E+01	1.54005
1.26500E+01	1.53801
1.27000E+01	1.53685
1.27148E+01	1.54277
1.27492E+01	1.55653
1.27500E+01	1.55735
1.28500E+01	1.64163
1.28924E+01	1.65974
1.29000E+01	1.65894
1.29500E+01	1.62955
1.29845E+01	1.59778
1.30000E+01	1.58353
1.30500E+01	1.55707
1.30761E+01	1.55961
1.31000E+01	1.56194
1.31500E+01	1.57624
1.32000E+01	1.57929
1.32247E+01	1.57636
1.32500E+01	1.57402
1.33000E+01	1.57133
1.33500E+01	1.57826
1.34125E+01	1.58991
1.34500E+01	1.59847
1.35000E+01	1.6098
1.35500E+01	1.6128
1.36200E+01	1.6165
1.36500E+01	1.62383
1.36743E+01	1.63072
1.37329E+01	1.64596
1.37350E+01	1.6465
1.37400E+01	1.6468
1.37500E+01	1.64208
1.37650E+01	1.63286
1.37700E+01	1.63081
1.37850E+01	1.63476
1.38050E+01	1.64409
1.38100E+01	1.64545
1.38298E+01	1.6382
1.38500E+01	1.63081
1.39500E+01	1.60417
1.40000E+01	1.59276
1.40250E+01	1.59036
1.40500E+01	1.58867
1.41250E+01	1.59621
1.41500E+01	1.59936
1.42500E+01	1.61253
1.43500E+01	1.6269
1.44250E+01	1.6406
1.44500E+01	1.64619
1.45000E+01	1.65844
1.45500E+01	1.67362
1.45562E+01	1.67476
1.46500E+01	1.7034
1.47500E+01	1.73274
1.48500E+01	1.75973
1.49372E+01	1.76347
1.49500E+01	1.76402
1.50000E+01	1.76492
1.50200E+01	1.7639
1.50426E+01	1.75508
1.50500E+01	1.75217
1.51000E+01	1.72106
1.51500E+01	1.68457
1.52000E+01	1.6483
1.52500E+01	1.6217
1.52550E+01	1.61906
1.53472E+01	1.58906
1.53500E+01	1.58814
1.53921E+01	1.5806
1.54000E+01	1.58122
1.54500E+01	1.59155
1.55000E+01	1.60167
1.55500E+01	1.61018
1.56000E+01	1.61891
1.56500E+01	1.62462
1.57000E+01	1.62624
1.57500E+01	1.62438
1.58000E+01	1.61736
1.58500E+01	1.60663
1.59000E+01	1.59479
1.59096E+01	1.59063
1.59500E+01	1.57309
1.60000E+01	1.55251
1.61000E+01	1.54722
1.61300E+01	1.55014
1.61560E+01	1.55266
1.61610E+01	1.55341
1.62000E+01	1.55917
1.62050E+01	1.56022
1.62120E+01	1.56148
1.63000E+01	1.58177
1.64000E+01	1.58821
1.64100E+01	1.58758
1.65000E+01	1.56892
1.65287E+01	1.55933
1.66000E+01	1.54426
1.66150E+01	1.54121
1.66516E+01	1.53821
1.67000E+01	1.54067
1.67148E+01	1.54196
1.68000E+01	1.55537
1.68200E+01	1.55869
1.69000E+01	1.57929
1.69500E+01	1.59264
1.70000E+01	1.60689
1.70250E+01	1.61454
1.71000E+01	1.63984
1.71845E+01	1.65636
1.72000E+01	1.65773
1.72251E+01	1.6605
1.72300E+01	1.66085
1.72502E+01	1.66232
1.73000E+01	1.66217
1.74000E+01	1.6587
1.74350E+01	1.65691
1.74880E+01	1.6528
1.75000E+01	1.65182
1.76000E+01	1.64369
1.76400E+01	1.6415
1.77000E+01	1.63809
1.78000E+01	1.63519
1.78450E+01	1.63384
1.78507E+01	1.63328
1.79000E+01	1.62841
1.80000E+01	1.61963
1.80044E+01	1.61976
1.80500E+01	1.6131
1.81000E+01	1.60568
1.81338E+01	1.60221
1.82000E+01	1.59552
1.82550E+01	1.59202
1.82890E+01	1.5897
1.83000E+01	1.58896
1.84000E+01	1.58813
1.84600E+01	1.59146
1.85000E+01	1.59519
1.85718E+01	1.60582
1.86000E+01	1.6099
1.86650E+01	1.62674
1.87000E+01	1.6356
1.88000E+01	1.65783
1.88700E+01	1.67341
1.89000E+01	1.67978
1.89540E+01	1.6857
1.90000E+01	1.69074
1.90750E+01	1.68587
1.90877E+01	1.68513
1.91000E+01	1.68443
1.92000E+01	1.67474
1.92800E+01	1.66614
1.93000E+01	1.66483
1.93005E+01	1.66485
1.93645E+01	1.65591
1.94000E+01	1.65098
1.94010E+01	1.651
1.94850E+01	1.63963
1.95000E+01	1.63746
1.95891E+01	1.63453
1.96000E+01	1.63403
1.96394E+01	1.63435
1.96900E+01	1.63474
1.97000E+01	1.63429
1.98000E+01	1.63652
1.98950E+01	1.63827
1.99000E+01	1.63826
2.00000E+01	1.63906
2.01000E+01	1.64901
2.01482E+01	1.65648
2.02562E+01	1.677
2.02597E+01	1.67767
2.03342E+01	1.69178
2.03500E+01	1.69407
2.04200E+01	1.6999
2.05000E+01	1.7027
2.06171E+01	1.70462
2.06500E+01	1.70563
2.08200E+01	1.69968
2.09030E+01	1.69669
2.09500E+01	1.69505
2.09763E+01	1.6944
2.09945E+01	1.69395
2.10000E+01	1.69377
2.10816E+01	1.69119
2.12325E+01	1.68657
2.12500E+01	1.68603
2.14424E+01	1.68054
2.15000E+01	1.67897
2.15011E+01	1.67894
2.15500E+01	1.6777
2.15942E+01	1.67771
2.16362E+01	1.67707
2.16528E+01	1.67682
2.17250E+01	1.67573
2.18044E+01	1.67442
2.18500E+01	1.67367
2.18950E+01	1.67201
2.19582E+01	1.66959
2.19695E+01	1.66916
2.19868E+01	1.66854
2.20000E+01	1.66806
2.20440E+01	1.6672
2.21500E+01	1.66648
2.22448E+01	1.66538
2.24500E+01	1.663
2.24750E+01	1.66197
2.25000E+01	1.6622
2.27500E+01	1.65801
2.28644E+01	1.65656
2.30000E+01	1.65481
2.30500E+01	1.65384
2.33500E+01	1.64912
2.35000E+01	1.64606
2.36500E+01	1.64468
2.37435E+01	1.64286
2.39500E+01	1.64123
2.39750E+01	1.64004
2.40000E+01	1.63962
2.42500E+01	1.63647
2.42886E+01	1.63538
2.44088E+01	1.63292
2.45000E+01	1.63127
2.45500E+01	1.63074
2.45771E+01	1.63047
2.47505E+01	1.6295
2.48500E+01	1.62821
2.50000E+01	1.62791
2.50750E+01	1.62884
2.51500E+01	1.6291
2.54500E+01	1.62996
2.55000E+01	1.63058
2.57500E+01	1.63083
2.60000E+01	1.63154
2.60500E+01	1.63075
2.63447E+01	1.6239
2.63500E+01	1.62377
2.65000E+01	1.62045
2.66500E+01	1.6181
2.69500E+01	1.61075
2.70000E+01	1.60953
2.72500E+01	1.60313
2.74755E+01	1.59878
2.75000E+01	1.5983
2.75500E+01	1.5975
2.76750E+01	1.59554
2.78500E+01	1.59191
2.80000E+01	1.58984
2.81500E+01	1.58616
2.82563E+01	1.58371
2.84500E+01	1.57925
2.85000E+01	1.57835
2.87500E+01	1.57326
2.90000E+01	1.5699
2.90500E+01	1.56952
2.93500E+01	1.56814
2.95000E+01	1.56695
2.95750E+01	1.56753
2.96500E+01	1.56727
2.96756E+01	1.56724
2.97567E+01	1.56716
2.98783E+01	1.56704
2.99189E+01	1.567
2.99392E+01	1.56698
2.99500E+01	1.56697
2.99594E+01	1.56692
2.99975E+01	1.56672
2.99991E+01	1.56671
2.99992E+01	1.56671
2.99993E+01	1.56671
2.99994E+01	1.56671
2.99995E+01	1.56671
2.99995E+01	1.56671
2.99996E+01	1.5667
2.99996E+01	1.5667
2.99997E+01	1.5667
2.99997E+01	1.56669
2.99997E+01	1.56669
2.99998E+01	1.56669
2.99998E+01	1.56668
2.99999E+01	1.56668
2.99999E+01	1.56667
3.00000E+01	1.56666
3.00000E+01	1.56666
3.00001E+01	1.56665
3.00001E+01	1.56664
3.00002E+01	1.56664
3.00002E+01	1.56664
3.00002E+01	1.56663
3.00002E+01	1.56663
3.00003E+01	1.56663
3.00003E+01	1.56663
3.00003E+01	1.56662
3.00003E+01	1.56662
3.00003E+01	1.56662
3.00004E+01	1.56662
3.00004E+01	1.56662
3.00004E+01	1.56662
3.00004E+01	1.56662
3.00004E+01	1.56661
3.00004E+01	1.56661
3.00005E+01	1.56661
3.00005E+01	1.56661
3.00005E+01	1.56661
3.00005E+01	1.56661
3.00005E+01	1.56661
3.00005E+01	1.56661
3.00005E+01	1.56661
3.00005E+01	1.56661
3.00006E+01	1.56661
3.00006E+01	1.56661
3.00006E+01	1.56661
3.00006E+01	1.56661
3.00006E+01	1.56661
3.00006E+01	1.56661
3.00006E+01	1.56661
3.00006E+01	1.56661
3.00006E+01	1.56661
3.00007E+01	1.56661
3.00007E+01	1.56661
3.00007E+01	1.56661
3.00007E+01	1.5666
3.00007E+01	1.5666
3.00007E+01	1.5666
3.00007E+01	1.5666
3.00007E+01	1.5666
3.00007E+01	1.5666
3.00007E+01	1.5666
3.00008E+01	1.5666
3.00008E+01	1.5666
3.00008E+01	1.5666
3.00008E+01	1.5666
3.00008E+01	1.5666
3.00008E+01	1.5666
3.00008E+01	1.5666
3.00008E+01	1.5666
3.00008E+01	1.5666
3.00008E+01	1.5666
3.00009E+01	1.5666
3.00009E+01	1.5666
3.00009E+01	1.5666
3.00009E+01	1.5666
3.00009E+01	1.5666
3.00009E+01	1.5666
3.00009E+01	1.5666
3.00009E+01	1.5666
3.00009E+01	1.5666
3.00009E+01	1.5666
3.00009E+01	1.5666
3.00009E+01	1.5666
3.00009E+01	1.5666
3.00009E+01	1.5666
3.00010E+01	1.5666
3.00010E+01	1.5666
3.00010E+01	1.5666
3.00010E+01	1.5666
3.00010E+01	1.5666
3.00010E+01	1.5666
3.00010E+01	1.5666
3.00010E+01	1.5666
3.00010E+01	1.5666
3.00010E+01	1.5666
3.00010E+01	1.5666
3.00010E+01	1.5666
3.00010E+01	1.5666
3.00010E+01	1.5666
3.00010E+01	1.5666
3.00011E+01	1.5666
3.00011E+01	1.5666
3.00011E+01	1.5666
3.00011E+01	1.5666
3.00011E+01	1.5666
3.00011E+01	1.5666
3.00011E+01	1.5666
3.00011E+01	1.5666
3.00011E+01	1.5666
3.00011E+01	1.5666
3.00011E+01	1.5666
3.00011E+01	1.5666
3.00011E+01	1.5666
3.00011E+01	1.5666
3.00011E+01	1.5666
3.00011E+01	1.5666
3.00012E+01	1.5666
3.00012E+01	1.5666
3.00012E+01	1.5666
3.00012E+01	1.5666
3.00012E+01	1.5666
3.00012E+01	1.5666
3.00012E+01	1.5666
3.00012E+01	1.5666
3.00012E+01	1.5666
3.00012E+01	1.5666
3.00012E+01	1.5666
3.00012E+01	1.5666
3.00012E+01	1.5666
3.00012E+01	1.5666
3.00012E+01	1.5666
3.00012E+01	1.5666
3.00013E+01	1.5666
3.00013E+01	1.5666
3.00013E+01	1.5666
3.00013E+01	1.5666
3.00013E+01	1.5666
3.00013E+01	1.5666
3.00013E+01	1.5666
3.00013E+01	1.5666
3.00013E+01	1.5666
3.00013E+01	1.5666
3.00013E+01	1.5666
3.00013E+01	1.5666
3.00013E+01	1.5666
3.00013E+01	1.5666
3.00013E+01	1.5666
3.00013E+01	1.5666
3.00013E+01	1.5666
3.00013E+01	1.5666
3.00014E+01	1.5666
3.00014E+01	1.5666
3.00014E+01	1.5666
3.00014E+01	1.5666
3.00014E+01	1.5666
3.00014E+01	1.5666
3.00014E+01	1.5666
3.00014E+01	1.5666
3.00014E+01	1.5666
3.00014E+01	1.5666
3.00014E+01	1.5666
3.00014E+01	1.5666
3.00014E+01	1.5666
3.00014E+01	1.5666
3.00014E+01	1.5666
3.00014E+01	1.5666
3.00014E+01	1.5666
3.00014E+01	1.5666
3.00014E+01	1.5666
3.00014E+01	1.5666
3.00014E+01	1.5666
3.00015E+01	1.5666
3.00015E+01	1.5666
3.00015E+01	1.5666
3.00015E+01	1.5666
3.00015E+01	1.5666
3.00015E+01	1.5666
3.00015E+01	1.5666
3.00015E+01	1.5666
3.00016E+01	1.5666
3.00017E+01	1.5666
3.00033E+01	1.56658
3.07079E+01	1.56073
3.11412E+01	1.55223
3.22257E+01	1.53258
3.32630E+01	1.51003
3.41482E+01	1.49267
3.48739E+01	1.48098
3.50000E+01	1.47874
3.91296E+01	1.41404
4.02822E+01	1.39769
4.10000E+01	1.38516
4.15784E+01	1.37553
4.33033E+01	1.34354
4.40000E+01	1.32932
4.80000E+01	1.25029
5.03527E+01	1.2051
5.20000E+01	1.17631
5.37477E+01	1.14679
5.78042E+01	1.08312
6.00000E+01	1.05066
6.14303E+01	1.02854
6.40000E+01	0.991808
6.54585E+01	0.970907
6.80000E+01	0.937225
6.94867E+01	0.918566
7.10000E+01	0.900892
7.35150E+01	0.872571
7.75432E+01	0.830609
7.80000E+01	0.826243
8.05643E+01	0.802225
8.37435E+01	0.776118
8.60000E+01	0.758185
8.70000E+01	0.749272
8.80000E+01	0.740754
9.00000E+01	0.720587
9.19136E+01	0.702384
9.20000E+01	0.701559
9.46631E+01	0.677833
9.50000E+01	0.675026
9.60000E+01	0.666971
9.70000E+01	0.658972
9.80000E+01	0.651792
1.00705E+02	0.632048
1.04000E+02	0.610014
1.06748E+02	0.593442
1.08762E+02	0.582328
1.10776E+02	0.572142
1.12790E+02	0.562796
1.16000E+02	0.548712
1.18000E+02	0.540889
1.20846E+02	0.530047
1.24875E+02	0.516098
1.28903E+02	0.503385
1.38973E+02	0.473886
1.50000E+02	0.443001
