E(MeV)	"ENDF/B-VIII.b5: SE-80(N,TOT)"
1.00000E-11	75.4332
1.10304E-11	71.8688
1.21669E-11	68.4863
1.22413E-11	68.2775
1.34206E-11	65.2665
1.35845E-11	64.8717
1.48034E-11	62.1945
1.49842E-11	61.8199
1.63287E-11	59.2731
1.65281E-11	58.9168
1.80111E-11	56.4942
1.82311E-11	56.1553
1.98669E-11	53.8511
2.01096E-11	53.5288
2.19139E-11	51.3375
2.21817E-11	51.031
2.41719E-11	48.9471
2.44672E-11	48.6557
2.66625E-11	46.6807
2.71786E-11	46.2431
2.94097E-11	44.5237
3.01890E-11	43.9581
3.24400E-11	42.4725
3.35345E-11	41.7924
3.57825E-11	40.522
3.72488E-11	39.7422
3.94694E-11	38.6678
4.13767E-11	37.7999
4.35362E-11	36.9055
4.59597E-11	35.962
4.80221E-11	35.2309
5.10529E-11	34.2217
5.29701E-11	33.6402
5.67076E-11	32.5759
5.84280E-11	32.1296
6.29919E-11	31.0185
6.44483E-11	30.6954
6.99691E-11	29.5468
7.10888E-11	29.3344
7.77229E-11	28.1551
7.84136E-11	28.0431
8.63317E-11	26.841
8.64931E-11	26.8186
9.54051E-11	25.6635
9.58989E-11	25.6033
1.05235E-10	24.5705
1.06521E-10	24.4368
1.16078E-10	23.535
1.18326E-10	23.3358
1.28039E-10	22.5568
1.32359E-10	22.2317
1.41231E-10	21.6291
1.48057E-10	21.1945
1.55784E-10	20.7503
1.65616E-10	20.2211
1.71835E-10	19.9185
1.85258E-10	19.3081
1.89540E-10	19.1319
2.07229E-10	18.4527
2.09070E-10	18.3888
2.30612E-10	17.6929
2.33429E-10	17.6076
2.54374E-10	17.0405
2.62956E-10	16.8232
2.80584E-10	16.4232
2.96202E-10	16.0926
3.09494E-10	15.8401
3.33669E-10	15.4125
3.41383E-10	15.2901
3.76558E-10	14.7721
3.78508E-10	14.7453
4.15358E-10	14.2949
4.29371E-10	14.1355
4.58155E-10	13.8445
4.90482E-10	13.5411
5.05362E-10	13.4173
5.57433E-10	13.0168
5.64242E-10	12.9681
6.14869E-10	12.6495
6.49096E-10	12.4502
6.78223E-10	12.3004
7.48105E-10	11.9692
7.51977E-10	11.9523
8.25188E-10	11.6718
8.83412E-10	11.4664
9.10213E-10	11.3837
1.00400E-09	11.1189
1.04514E-09	11.012
1.10745E-09	10.8714
1.22155E-09	10.6362
1.25392E-09	10.5748
1.34742E-09	10.4222
1.48625E-09	10.2156
1.52564E-09	10.1619
1.63939E-09	10.0286
1.80831E-09	9.84881
1.88241E-09	9.77683
1.99463E-09	9.68343
2.20016E-09	9.52884
2.38863E-09	9.40012
2.42685E-09	9.37774
2.67691E-09	9.24629
2.95273E-09	9.11551
3.11709E-09	9.0449
3.25697E-09	8.99389
3.59256E-09	8.88442
3.96272E-09	8.77595
4.24233E-09	8.70201
4.37103E-09	8.67322
4.82141E-09	8.5836
5.31819E-09	8.49534
5.86616E-09	8.40808
6.06407E-09	8.37971
6.47059E-09	8.331
7.13730E-09	8.26028
7.87271E-09	8.19097
8.68389E-09	8.12282
9.36219E-09	8.07183
9.57865E-09	8.0582
1.05656E-08	8.00362
1.16543E-08	7.95057
1.28551E-08	7.89888
1.41796E-08	7.84835
1.56406E-08	7.79878
1.62816E-08	7.77936
1.72522E-08	7.75439
1.90298E-08	7.71425
2.09906E-08	7.67528
2.31534E-08	7.63738
2.52184E-08	7.60514
2.52419E-08	7.6048
2.53000E-08	7.604
2.79068E-08	7.57315
3.07823E-08	7.54353
3.39540E-08	7.51504
3.74525E-08	7.48763
4.13115E-08	7.46123
4.55681E-08	7.43574
5.02633E-08	7.41104
5.54423E-08	7.38704
6.11549E-08	7.36369
6.74561E-08	7.34092
6.98622E-08	7.33321
7.44066E-08	7.32138
8.20732E-08	7.30414
9.05297E-08	7.28773
9.98577E-08	7.27205
1.10147E-07	7.25703
1.21496E-07	7.24269
1.34014E-07	7.22899
1.47823E-07	7.21589
1.63054E-07	7.20338
1.79855E-07	7.19145
1.99786E-07	7.17915
2.20371E-07	7.16814
2.43077E-07	7.15757
2.68123E-07	7.14742
2.95750E-07	7.13764
3.26223E-07	7.12821
3.59836E-07	7.11914
3.99693E-07	7.10972
4.40876E-07	7.10116
4.86303E-07	7.09284
5.36410E-07	7.08472
5.91680E-07	7.07677
6.08493E-07	7.07462
6.52645E-07	7.07011
7.19891E-07	7.06422
7.88543E-07	7.0589
8.69792E-07	7.05341
9.59413E-07	7.04815
1.05827E-06	7.04311
1.16731E-06	7.03826
1.28758E-06	7.0336
1.42025E-06	7.0291
1.55562E-06	7.02511
1.69203E-06	7.02149
1.85339E-06	7.01767
2.04436E-06	7.01368
2.27080E-06	7.00952
2.50478E-06	7.00573
2.76286E-06	7.00202
3.02634E-06	6.99864
3.31478E-06	6.99529
3.63089E-06	6.99196
3.97696E-06	6.98865
4.35622E-06	6.98533
4.80507E-06	6.98175
5.30017E-06	6.97813
5.84628E-06	6.97447
6.58545E-06	6.96993
7.21347E-06	6.96636
7.84603E-06	6.96296
8.53406E-06	6.95946
9.41338E-06	6.95521
1.03833E-05	6.95077
1.14532E-05	6.9461
1.29012E-05	6.94007
1.43309E-05	6.93438
1.56968E-05	6.92912
1.70733E-05	6.92396
1.87015E-05	6.91799
2.06284E-05	6.9111
2.27539E-05	6.90366
2.49226E-05	6.89622
2.65450E-05	6.89072
2.88728E-05	6.88291
3.14047E-05	6.87453
3.39194E-05	6.86628
3.71541E-05	6.85577
4.09823E-05	6.84345
4.52050E-05	6.82998
4.88247E-05	6.81851
5.27368E-05	6.80617
5.73614E-05	6.79165
6.23915E-05	6.77594
6.78627E-05	6.75891
7.43307E-05	6.73886
8.19895E-05	6.71519
9.04375E-05	6.68917
9.76838E-05	6.66691
1.05506E-04	6.64292
1.14758E-04	6.61459
1.24821E-04	6.58383
1.35767E-04	6.55042
1.48714E-04	6.51095
1.64037E-04	6.4643
1.77172E-04	6.42435
1.90027E-04	6.38528
2.09607E-04	6.32582
2.29129E-04	6.26658
2.48953E-04	6.20646
2.70784E-04	6.14028
2.96593E-04	6.06209
3.26328E-04	5.97205
3.35601E-04	5.94398
3.50006E-04	5.89738
3.80308E-04	5.79939
4.18336E-04	5.67645
4.58231E-04	5.54751
4.97881E-04	5.4194
5.26577E-04	5.3267
5.37747E-04	5.28778
5.62513E-04	5.20147
6.12770E-04	5.02638
6.52629E-04	4.88754
6.71173E-04	4.82295
6.90245E-04	4.75102
7.30030E-04	4.601
7.65956E-04	4.46555
7.93064E-04	4.36337
8.04253E-04	4.31768
8.38775E-04	4.17674
8.74676E-04	4.0302
8.93273E-04	3.9543
9.05875E-04	3.89892
9.44119E-04	3.73091
9.75005E-04	3.59525
9.81883E-04	3.56278
1.01965E-03	3.38453
1.05000E-03	3.24127
1.09517E-03	3.01353
1.11062E-03	2.93565
1.12500E-03	2.85884
1.15697E-03	2.68811
1.16513E-03	2.64454
1.18958E-03	2.50612
1.21482E-03	2.36334
1.22091E-03	2.32887
1.22700E-03	2.29263
1.25400E-03	2.13208
1.26285E-03	2.07951
1.28100E-03	1.96708
1.30125E-03	1.84174
1.30800E-03	1.79998
1.32150E-03	1.71277
1.34040E-03	1.59075
1.35660E-03	1.48624
1.37280E-03	1.37824
1.38360E-03	1.30632
1.39559E-03	1.22659
1.40460E-03	1.16676
1.41090E-03	1.12504
1.41615E-03	1.09013
1.42140E-03	1.05534
1.42477E-03	1.03305
1.42815E-03	1.01085
1.43109E-03	0.991626
1.43402E-03	0.97252
1.43686E-03	0.95422
1.43861E-03	0.942993
1.44037E-03	0.93186
1.44212E-03	0.920851
1.44388E-03	0.909998
1.44519E-03	0.901989
1.44651E-03	0.89412
1.44783E-03	0.886918
1.44914E-03	0.879935
1.45002E-03	0.875433
1.45093E-03	0.870915
1.45184E-03	0.866593
1.45275E-03	0.862506
1.45336E-03	0.859939
1.45397E-03	0.857521
1.45458E-03	0.855276
1.45522E-03	0.853128
1.45589E-03	0.85116
1.45623E-03	0.850333
1.45640E-03	0.85011
1.45691E-03	0.849679
1.45741E-03	0.849525
1.45792E-03	0.849696
1.45842E-03	0.850253
1.45893E-03	0.851271
1.45927E-03	0.852252
1.45960E-03	0.853513
1.45994E-03	0.855095
1.46028E-03	0.857044
1.46058E-03	0.85984
1.46089E-03	0.863029
1.46119E-03	0.866671
1.46149E-03	0.870835
1.46180E-03	0.875607
1.46210E-03	0.88109
1.46231E-03	0.885227
1.46233E-03	0.885808
1.46256E-03	0.891573
1.46280E-03	0.898449
1.46298E-03	0.903943
1.46299E-03	0.904227
1.46317E-03	0.91101
1.46336E-03	0.918391
1.46355E-03	0.926449
1.46373E-03	0.935281
1.46379E-03	0.938372
1.46392E-03	0.945661
1.46410E-03	0.957372
1.46427E-03	0.96904
1.46442E-03	0.980501
1.46457E-03	0.993006
1.46463E-03	0.998336
1.46473E-03	1.00745
1.46488E-03	1.02375
1.46503E-03	1.04171
1.46514E-03	1.0559
1.46526E-03	1.0735
1.46537E-03	1.09201
1.46547E-03	1.10915
1.46548E-03	1.11079
1.46559E-03	1.13343
1.46568E-03	1.15344
1.46576E-03	1.17522
1.46582E-03	1.18886
1.46585E-03	1.1998
1.46594E-03	1.22781
1.46603E-03	1.25883
1.46605E-03	1.26708
1.46612E-03	1.29498
1.46618E-03	1.32179
1.46623E-03	1.34669
1.46624E-03	1.35109
1.46630E-03	1.38443
1.46635E-03	1.42071
1.46641E-03	1.45482
1.46642E-03	1.46379
1.46648E-03	1.51309
1.46652E-03	1.5494
1.46654E-03	1.56838
1.46659E-03	1.60957
1.46663E-03	1.65369
1.46664E-03	1.66789
1.46667E-03	1.7025
1.46671E-03	1.75548
1.46676E-03	1.81235
1.46680E-03	1.87554
1.46684E-03	1.94362
1.46688E-03	2.01894
1.46692E-03	2.10008
1.46693E-03	2.10879
1.46697E-03	2.18985
1.46701E-03	2.28656
1.46705E-03	2.38798
1.46709E-03	2.49092
1.46710E-03	2.52139
1.46713E-03	2.60326
1.46716E-03	2.72394
1.46718E-03	2.78822
1.46720E-03	2.85433
1.46724E-03	2.99499
1.46725E-03	3.01993
1.46728E-03	3.14762
1.46731E-03	3.28336
1.46735E-03	3.48832
1.46737E-03	3.5824
1.46739E-03	3.67867
1.46743E-03	3.88289
1.46744E-03	3.91888
1.46747E-03	4.10352
1.46750E-03	4.29899
1.46754E-03	4.59281
1.46756E-03	4.72702
1.46758E-03	4.86417
1.46762E-03	5.15388
1.46767E-03	5.55483
1.46769E-03	5.74133
1.46771E-03	5.95069
1.46775E-03	6.33458
1.46776E-03	6.37577
1.46780E-03	6.83474
1.46781E-03	6.99671
1.46784E-03	7.32686
1.46788E-03	7.72586
1.46789E-03	7.85279
1.46793E-03	8.41557
1.46794E-03	8.52855
1.46798E-03	9.01727
1.46800E-03	9.4105
1.46802E-03	9.65646
1.46807E-03	10.3728
1.46808E-03	10.5715
1.46813E-03	11.4569
1.46814E-03	11.5456
1.46818E-03	12.2962
1.46820E-03	12.5791
1.46823E-03	13.1837
1.46825E-03	13.6877
1.46830E-03	14.6053
1.46831E-03	14.8584
1.46837E-03	16.1396
1.46840E-03	16.7588
1.46844E-03	17.7797
1.46848E-03	18.8167
1.46853E-03	19.8668
1.46857E-03	21.0136
1.46860E-03	21.8175
1.46867E-03	23.7841
1.46871E-03	24.9193
1.46877E-03	26.7043
1.46885E-03	28.9049
1.46894E-03	31.7827
1.46917E-03	38.6822
1.46928E-03	42
1.46930E-03	42.4805
1.46939E-03	44.9392
1.46942E-03	45.7418
1.46950E-03	47.6304
1.46952E-03	47.9986
1.46958E-03	49.3096
1.46960E-03	49.628
1.46967E-03	50.734
1.46968E-03	51.0002
1.46975E-03	51.8808
1.46976E-03	52.0898
1.46983E-03	52.7281
1.46984E-03	52.8761
1.46991E-03	53.2595
1.46992E-03	53.3233
1.47000E-03	53.49
1.47008E-03	53.3196
1.47009E-03	53.3042
1.47015E-03	52.913
1.47025E-03	51.9517
1.47032E-03	50.9032
1.47041E-03	49.4032
1.47042E-03	49.1873
1.47049E-03	47.733
1.47053E-03	46.8597
1.47059E-03	45.5404
1.47062E-03	44.7436
1.47069E-03	42.7545
1.47070E-03	42.4449
1.47081E-03	39.352
1.47082E-03	38.9453
1.47103E-03	32.6867
1.47121E-03	27.1559
1.47132E-03	23.9317
1.47133E-03	23.8381
1.47142E-03	21.1621
1.47144E-03	20.8109
1.47151E-03	19.0758
1.47157E-03	17.6004
1.47161E-03	16.6976
1.47164E-03	15.9133
1.47167E-03	15.3181
1.47171E-03	14.3441
1.47173E-03	14.0159
1.47176E-03	13.364
1.47179E-03	12.8045
1.47181E-03	12.4354
1.47185E-03	11.6739
1.47186E-03	11.5583
1.47191E-03	10.7335
1.47192E-03	10.6286
1.47196E-03	9.96011
1.47198E-03	9.66793
1.47201E-03	9.11462
1.47205E-03	8.68899
1.47206E-03	8.52208
1.47210E-03	7.96575
1.47214E-03	7.44574
1.47216E-03	7.28158
1.47219E-03	6.95859
1.47221E-03	6.66375
1.47223E-03	6.5026
1.47227E-03	6.09713
1.47232E-03	5.68185
1.47233E-03	5.58464
1.47236E-03	5.31442
1.47238E-03	5.1181
1.47240E-03	4.97284
1.47244E-03	4.72007
1.47248E-03	4.44753
1.47250E-03	4.31187
1.47252E-03	4.19321
1.47255E-03	3.96548
1.47259E-03	3.73724
1.47261E-03	3.65658
1.47263E-03	3.53365
1.47267E-03	3.37679
1.47271E-03	3.16974
1.47272E-03	3.1269
1.47275E-03	3.00815
1.47278E-03	2.90323
1.47279E-03	2.85852
1.47283E-03	2.7208
1.47286E-03	2.61132
1.47287E-03	2.5923
1.47291E-03	2.47516
1.47295E-03	2.36544
1.47299E-03	2.26597
1.47303E-03	2.17288
1.47307E-03	2.08055
1.47312E-03	1.98812
1.47316E-03	1.90532
1.47320E-03	1.84108
1.47321E-03	1.82918
1.47326E-03	1.76063
1.47329E-03	1.71901
1.47330E-03	1.69794
1.47335E-03	1.64129
1.47340E-03	1.58877
1.47344E-03	1.54185
1.47349E-03	1.49842
1.47351E-03	1.47822
1.47354E-03	1.45879
1.47358E-03	1.42267
1.47363E-03	1.38952
1.47365E-03	1.37369
1.47372E-03	1.33086
1.47379E-03	1.29198
1.47381E-03	1.28601
1.47385E-03	1.26344
1.47391E-03	1.23727
1.47398E-03	1.20851
1.47400E-03	1.20168
1.47409E-03	1.17089
1.47417E-03	1.14288
1.47421E-03	1.13089
1.47426E-03	1.11791
1.47435E-03	1.0955
1.47444E-03	1.07476
1.47445E-03	1.07222
1.47455E-03	1.05051
1.47467E-03	1.02847
1.47480E-03	1.0063
1.47481E-03	1.00439
1.47493E-03	0.98601
1.47505E-03	0.968973
1.47515E-03	0.956875
1.47518E-03	0.953316
1.47530E-03	0.939387
1.47546E-03	0.922179
1.47563E-03	0.906317
1.47579E-03	0.891613
1.47585E-03	0.886722
1.47595E-03	0.878611
1.47614E-03	0.865262
1.47635E-03	0.851419
1.47656E-03	0.838646
1.47677E-03	0.826793
1.47678E-03	0.826179
1.47698E-03	0.816535
1.47719E-03	0.807018
1.47740E-03	0.798109
1.47761E-03	0.789735
1.47771E-03	0.785808
1.47787E-03	0.780576
1.47817E-03	0.770895
1.47847E-03	0.761938
1.47878E-03	0.7536
1.47908E-03	0.745793
1.47938E-03	0.738446
1.47953E-03	0.734972
1.47968E-03	0.731806
1.47999E-03	0.725821
1.48037E-03	0.718661
1.48072E-03	0.712519
1.48107E-03	0.706679
1.48154E-03	0.699299
1.48201E-03	0.692317
1.48247E-03	0.686251
1.48294E-03	0.680474
1.48341E-03	0.674946
1.48408E-03	0.667304
1.48471E-03	0.660523
1.48534E-03	0.654008
1.48597E-03	0.647716
1.48681E-03	0.639614
1.48723E-03	0.635701
1.48765E-03	0.632046
1.48849E-03	0.624962
1.48933E-03	0.618066
1.49017E-03	0.611326
1.49106E-03	0.604355
1.49246E-03	0.593593
1.49386E-03	0.583073
1.49433E-03	0.579628
1.49526E-03	0.573027
1.49619E-03	0.566508
1.49806E-03	0.553633
1.49993E-03	0.540933
1.50179E-03	0.528367
1.50459E-03	0.509712
1.50552E-03	0.503556
1.50776E-03	0.489341
1.51112E-03	0.468177
1.51448E-03	0.447142
1.51747E-03	0.428537
1.51896E-03	0.419613
1.52643E-03	0.375248
1.52792E-03	0.366412
1.53240E-03	0.340986
1.53688E-03	0.315648
1.54136E-03	0.291379
1.54435E-03	0.275248
1.55032E-03	0.244512
1.55144E-03	0.238764
1.55704E-03	0.211282
1.55928E-03	0.200841
1.56264E-03	0.185229
1.56712E-03	0.165463
1.57059E-03	0.150804
1.57295E-03	0.141319
1.57413E-03	0.136596
1.57766E-03	0.123127
1.58060E-03	0.112471
1.58354E-03	0.102358
1.58590E-03	0.0946753
1.58707E-03	0.0910284
1.58840E-03	0.086947
1.59060E-03	0.0804966
1.59281E-03	0.074424
1.59487E-03	0.0690952
1.59671E-03	0.0646214
1.59818E-03	0.0612412
1.59943E-03	0.0585223
1.59965E-03	0.0580461
1.60090E-03	0.0554939
1.60208E-03	0.053217
1.60326E-03	0.0510633
1.60443E-03	0.0490338
1.60539E-03	0.0474785
1.60627E-03	0.0461206
1.60716E-03	0.0448384
1.60804E-03	0.0436323
1.60881E-03	0.0426399
1.60955E-03	0.0417502
1.61028E-03	0.0409151
1.61102E-03	0.0401353
1.61172E-03	0.0394463
1.61223E-03	0.0389746
1.61236E-03	0.0388591
1.61288E-03	0.0384286
1.61337E-03	0.0380403
1.61381E-03	0.0377175
1.61425E-03	0.0374159
1.61470E-03	0.0371356
1.61512E-03	0.0368872
1.61549E-03	0.0366873
1.61585E-03	0.0365025
1.61622E-03	0.0363328
1.61657E-03	0.0361858
1.61687E-03	0.0360727
1.61716E-03	0.0359694
1.61745E-03	0.0358761
1.61774E-03	0.0357951
1.61800E-03	0.0357301
1.61825E-03	0.0356728
1.61845E-03	0.0356349
1.61864E-03	0.0356014
1.61882E-03	0.0355748
1.61898E-03	0.0355529
1.61915E-03	0.0355343
1.61931E-03	0.035519
1.61948E-03	0.0355068
1.61965E-03	0.0354978
1.61983E-03	0.035492
1.62001E-03	0.03549
1.62019E-03	0.0354919
1.62031E-03	0.0354953
1.62042E-03	0.0355004
1.62059E-03	0.0355104
1.62073E-03	0.0355212
1.62087E-03	0.0355344
1.62100E-03	0.0355499
1.62114E-03	0.0355676
1.62128E-03	0.0355878
1.62142E-03	0.0356102
1.62146E-03	0.0356182
1.62158E-03	0.0356398
1.62170E-03	0.0356631
1.62182E-03	0.0356881
1.62193E-03	0.0357147
1.62205E-03	0.0357431
1.62215E-03	0.0357696
1.62228E-03	0.0358044
1.62241E-03	0.0358412
1.62254E-03	0.0358802
1.62267E-03	0.0359212
1.62280E-03	0.0359643
1.62293E-03	0.0360094
1.62305E-03	0.0360567
1.62323E-03	0.0361242
1.62340E-03	0.0361916
1.62356E-03	0.0362626
1.62373E-03	0.0363371
1.62389E-03	0.036415
1.62407E-03	0.0365011
1.62426E-03	0.0366008
1.62445E-03	0.0367053
1.62465E-03	0.0368147
1.62484E-03	0.0369289
1.62503E-03	0.0370479
1.62525E-03	0.0371899
1.62547E-03	0.0373383
1.62577E-03	0.0375521
1.62606E-03	0.0377774
1.62630E-03	0.0379689
1.62658E-03	0.0381993
1.62685E-03	0.0384399
1.62722E-03	0.0387765
1.62759E-03	0.0391315
1.62790E-03	0.0394476
1.62823E-03	0.0397969
1.62867E-03	0.0402861
1.62911E-03	0.0408024
1.62959E-03	0.0413924
1.63003E-03	0.0419656
1.63048E-03	0.0425666
1.63092E-03	0.0431956
1.63151E-03	0.0440778
1.63209E-03	0.0450103
1.63268E-03	0.0459932
1.63327E-03	0.0470273
1.63386E-03	0.048113
1.63452E-03	0.0493969
1.63526E-03	0.0509019
1.63599E-03	0.0524906
1.63673E-03	0.0541639
1.63710E-03	0.0550455
1.63754E-03	0.0561126
1.63842E-03	0.0583666
1.63930E-03	0.0607475
1.64019E-03	0.0632574
1.64127E-03	0.0665195
1.64223E-03	0.0695913
1.64320E-03	0.0728245
1.64416E-03	0.0762186
1.64545E-03	0.0810013
1.64680E-03	0.0863568
1.64741E-03	0.0889639
1.64817E-03	0.0921679
1.64954E-03	0.098355
1.65092E-03	0.104912
1.65250E-03	0.112921
1.65414E-03	0.121828
1.65579E-03	0.13131
1.65744E-03	0.141384
1.65895E-03	0.151213
1.65929E-03	0.153455
1.66122E-03	0.166852
1.66314E-03	0.181134
1.66506E-03	0.196351
1.66719E-03	0.214331
1.66774E-03	0.219273
1.66939E-03	0.23414
1.67158E-03	0.255288
1.67378E-03	0.277817
1.67610E-03	0.303105
1.67653E-03	0.308134
1.67845E-03	0.330591
1.68080E-03	0.359887
1.68257E-03	0.383065
1.68469E-03	0.4123
1.68626E-03	0.435358
1.68751E-03	0.453842
1.69034E-03	0.498449
1.69316E-03	0.546231
1.69379E-03	0.557591
1.69599E-03	0.597418
1.69881E-03	0.652142
1.70132E-03	0.70408
1.70164E-03	0.710583
1.70446E-03	0.773006
1.70729E-03	0.839537
1.70886E-03	0.878901
1.71011E-03	0.910439
1.71294E-03	0.985956
1.71576E-03	1.06628
1.71639E-03	1.08526
1.71859E-03	1.15177
1.72141E-03	1.24264
1.72392E-03	1.32845
1.72424E-03	1.33919
1.72706E-03	1.44183
1.72989E-03	1.55077
1.73146E-03	1.61563
1.73365E-03	1.70656
1.73742E-03	1.87523
1.73899E-03	1.9505
1.74024E-03	2.01079
1.74401E-03	2.20447
1.74652E-03	2.34412
1.74778E-03	2.41403
1.75154E-03	2.64074
1.75405E-03	2.8042
1.75531E-03	2.88603
1.75908E-03	3.1514
1.76159E-03	3.34279
1.76284E-03	3.43859
1.76661E-03	3.74942
1.76912E-03	3.97369
1.77038E-03	4.08594
1.77414E-03	4.45037
1.77477E-03	4.51616
1.77791E-03	4.84541
1.78168E-03	5.2734
1.78544E-03	5.73786
1.78670E-03	5.90577
1.78921E-03	6.24184
1.79172E-03	6.60671
1.79297E-03	6.78928
1.79674E-03	7.38415
1.80051E-03	8.03153
1.80176E-03	8.26632
1.80427E-03	8.73623
1.80679E-03	9.2482
1.80804E-03	9.50438
1.81181E-03	10.3422
1.81557E-03	11.2578
1.81683E-03	11.5913
1.81934E-03	12.2588
1.82185E-03	12.9894
1.82311E-03	13.3551
1.82687E-03	14.5569
1.83064E-03	15.8772
1.83189E-03	16.3537
1.83323E-03	16.8604
1.83590E-03	17.9439
1.83692E-03	18.3878
1.83856E-03	19.1055
1.84123E-03	20.3543
1.84131E-03	20.3935
1.84374E-03	21.6106
1.84571E-03	22.6753
1.84727E-03	23.5276
1.84928E-03	24.7088
1.84963E-03	24.912
1.85286E-03	26.9758
1.85305E-03	27.0961
1.85625E-03	29.3398
1.85641E-03	29.4598
1.85945E-03	31.7897
1.85989E-03	32.1605
1.86265E-03	34.4927
1.86338E-03	35.1643
1.86586E-03	37.4726
1.86680E-03	38.4405
1.86906E-03	40.7646
1.87019E-03	42.0458
1.87226E-03	44.3957
1.87358E-03	46.025
1.87439E-03	47.0341
1.87653E-03	49.8645
1.87659E-03	49.9538
1.87860E-03	52.8107
1.87960E-03	54.3669
1.88161E-03	57.4811
1.88262E-03	59.1775
1.88362E-03	60.8749
1.88563E-03	64.5158
1.88764E-03	68.4275
1.88864E-03	70.53
1.88965E-03	72.6337
1.89166E-03	77.1621
1.89367E-03	82.0448
1.89467E-03	84.6791
1.89567E-03	87.3149
1.89768E-03	93.0104
1.89969E-03	99.1761
1.90070E-03	102.516
1.90170E-03	105.858
1.90371E-03	113.11
1.90572E-03	120.994
1.90773E-03	129.576
1.90974E-03	138.934
1.91174E-03	149.153
1.91375E-03	160.33
1.91576E-03	172.574
1.91777E-03	186.009
1.91978E-03	200.774
1.92179E-03	217.021
1.92380E-03	234.876
1.92530E-03	249.465
1.92581E-03	254.718
1.92681E-03	265.229
1.92782E-03	276.566
1.92832E-03	282.237
1.92982E-03	300.589
1.93133E-03	320.404
1.93183E-03	327.534
1.93284E-03	341.802
1.93384E-03	357.209
1.93434E-03	364.917
1.93585E-03	389.884
1.93736E-03	416.852
1.93786E-03	426.552
1.93886E-03	445.961
1.93987E-03	466.889
1.94037E-03	477.357
1.94188E-03	511.177
1.94338E-03	547.554
1.94389E-03	560.576
1.94489E-03	586.63
1.94589E-03	614.867
1.94690E-03	643.115
1.94790E-03	673.7
1.94891E-03	704.294
1.94991E-03	737.21
1.95098E-03	772.192
1.95293E-03	840.105
1.95311E-03	846.678
1.95820E-03	1034.18
1.95945E-03	1080.46
1.96033E-03	1111.31
1.96146E-03	1150.95
1.96247E-03	1183.03
1.96347E-03	1215.1
1.96430E-03	1238.01
1.96498E-03	1256.75
1.96567E-03	1272.8
1.96648E-03	1291.44
1.96705E-03	1301.71
1.96774E-03	1314.25
1.96842E-03	1323.4
1.96900E-03	1331.02
1.96980E-03	1337.62
1.97025E-03	1341.33
1.97106E-03	1343.68
1.97151E-03	1344.97
1.97232E-03	1342.66
1.97301E-03	1340.7
1.97316E-03	1339.37
1.97452E-03	1327.37
1.97485E-03	1322.68
1.97603E-03	1305.67
1.97653E-03	1295.93
1.97753E-03	1276.43
1.97869E-03	1248.58
1.97954E-03	1228.24
1.98086E-03	1191.45
1.98168E-03	1168.67
1.98488E-03	1070.04
1.98808E-03	969.245
1.99009E-03	906.012
1.99210E-03	846.971
1.99310E-03	817.459
1.99411E-03	790.003
1.99511E-03	762.555
1.99611E-03	736.916
1.99712E-03	711.286
1.99812E-03	687.497
1.99913E-03	663.717
2.00013E-03	641.746
2.00114E-03	619.784
2.00214E-03	599.558
2.00315E-03	579.34
2.00415E-03	560.758
2.00515E-03	542.184
2.00616E-03	525.134
2.00716E-03	508.091
2.00817E-03	492.456
2.00917E-03	476.827
2.01018E-03	462.489
2.01118E-03	448.157
2.01218E-03	435.004
2.01319E-03	421.856
2.01419E-03	409.781
2.01520E-03	397.712
2.01620E-03	386.617
2.01721E-03	375.527
2.01821E-03	365.322
2.01922E-03	355.12
2.02022E-03	345.722
2.02122E-03	336.326
2.02223E-03	327.659
2.02323E-03	318.994
2.02424E-03	310.99
2.02524E-03	302.988
2.02625E-03	295.723
2.02826E-03	281.199
2.03077E-03	264.849
2.03328E-03	249.946
2.03579E-03	236.331
2.03830E-03	223.865
2.04081E-03	212.425
2.04332E-03	201.906
2.04583E-03	192.399
2.04709E-03	187.648
2.04834E-03	183.423
2.05085E-03	174.977
2.05337E-03	167.439
2.05462E-03	163.67
2.05588E-03	160.292
2.05839E-03	153.538
2.06215E-03	144.423
2.06592E-03	136.194
2.06843E-03	131.148
2.06956E-03	129.071
2.07295E-03	122.843
2.07747E-03	115.42
2.08143E-03	109.611
2.08274E-03	107.676
2.08538E-03	104.241
2.08802E-03	100.808
2.08919E-03	99.4336
2.09273E-03	95.3118
2.09743E-03	90.3293
2.10073E-03	87.184
2.10238E-03	85.6118
2.10567E-03	82.7361
2.10732E-03	81.2987
2.11062E-03	78.7
2.11313E-03	76.7206
2.11564E-03	74.924
2.11815E-03	73.1279
2.12066E-03	71.4818
2.12317E-03	69.8361
2.12568E-03	68.3512
2.13070E-03	65.3822
2.13573E-03	62.7609
2.13824E-03	61.4506
2.14075E-03	60.2786
2.14577E-03	57.9351
2.15079E-03	55.8432
2.15330E-03	54.7975
2.15581E-03	53.8533
2.16084E-03	51.9653
2.16586E-03	50.2642
2.16837E-03	49.4139
2.17088E-03	48.6398
2.17590E-03	47.092
2.17841E-03	46.3984
2.18595E-03	44.3182
2.19348E-03	42.4704
2.19599E-03	41.8546
2.20101E-03	40.754
2.20603E-03	39.6538
2.20854E-03	39.1597
2.21608E-03	37.6777
2.22361E-03	36.3406
2.22612E-03	35.8949
2.23114E-03	35.0871
2.23617E-03	34.2794
2.23868E-03	33.9204
2.25123E-03	32.1261
2.26128E-03	30.8677
2.26567E-03	30.3173
2.27006E-03	29.8239
2.27885E-03	28.8373
2.28764E-03	27.9548
2.29204E-03	27.5136
2.29643E-03	27.1129
2.30585E-03	26.2543
2.31526E-03	25.4929
2.32468E-03	24.7316
2.33410E-03	24.0616
2.34351E-03	23.3918
2.35293E-03	22.7979
2.36234E-03	22.2041
2.37176E-03	21.6789
2.38432E-03	20.9788
2.39687E-03	20.3572
2.40315E-03	20.0464
2.40943E-03	19.7686
2.42198E-03	19.2132
2.42826E-03	18.9354
2.43453E-03	18.6904
2.44709E-03	18.2004
2.45337E-03	17.9554
2.45965E-03	17.7375
2.47220E-03	17.3017
2.47848E-03	17.0838
2.48476E-03	16.8907
2.50359E-03	16.3114
2.50986E-03	16.1184
2.52242E-03	15.7793
2.54125E-03	15.2707
2.56008E-03	14.8168
2.57264E-03	14.5142
2.57892E-03	14.3801
2.59775E-03	13.9775
2.61030E-03	13.7092
2.61658E-03	13.5901
2.63541E-03	13.2329
2.64797E-03	12.9947
2.67308E-03	12.569
2.68564E-03	12.3561
2.69819E-03	12.1652
2.72330E-03	11.7834
2.73586E-03	11.5925
2.74841E-03	11.4227
2.77352E-03	11.0831
2.78607E-03	10.9133
2.79863E-03	10.7601
2.82374E-03	10.4538
2.83629E-03	10.3006
2.84885E-03	10.1619
2.87396E-03	9.88434
2.89907E-03	9.60684
2.92418E-03	9.35685
2.96184E-03	8.9819
2.97440E-03	8.85692
2.98974E-03	8.71752
3.02041E-03	8.43874
3.05108E-03	8.15998
3.08175E-03	7.90036
3.11304E-03	7.63548
3.14496E-03	7.36535
3.14895E-03	7.33351
3.22475E-03	6.72874
3.26395E-03	6.41608
3.29008E-03	6.20765
3.30315E-03	6.10429
3.34234E-03	5.79423
3.36847E-03	5.58755
3.39460E-03	5.38089
3.42074E-03	5.17424
3.44687E-03	4.96762
3.47300E-03	4.7525
3.49913E-03	4.53741
3.51220E-03	4.42987
3.53833E-03	4.21483
3.56446E-03	3.98925
3.59059E-03	3.76372
3.60365E-03	3.65098
3.61672E-03	3.5333
3.64285E-03	3.298
3.65592E-03	3.18038
3.66898E-03	3.05813
3.68858E-03	2.87481
3.70165E-03	2.75263
3.70818E-03	2.68914
3.72778E-03	2.49872
3.74738E-03	2.30836
3.76697E-03	2.11139
3.78657E-03	1.9145
3.79311E-03	1.8489
3.79964E-03	1.7818
3.81270E-03	1.64766
3.82577E-03	1.51357
3.83884E-03	1.37954
3.85680E-03	1.19536
3.87150E-03	1.04477
3.87885E-03	0.969529
3.88620E-03	0.896266
3.89845E-03	0.774263
3.90090E-03	0.750663
3.91070E-03	0.656348
3.91315E-03	0.632788
3.92050E-03	0.564589
3.92294E-03	0.54188
3.93201E-03	0.460655
3.93372E-03	0.445922
3.93887E-03	0.401786
3.94401E-03	0.359489
3.94573E-03	0.34541
3.95173E-03	0.298418
3.95430E-03	0.279245
3.95687E-03	0.260103
3.96141E-03	0.228009
3.96361E-03	0.213106
3.96508E-03	0.203194
3.96876E-03	0.179707
3.97178E-03	0.161366
3.97464E-03	0.144878
3.97537E-03	0.140862
3.97749E-03	0.129295
3.97945E-03	0.11916
3.98150E-03	0.10911
3.98354E-03	0.0995886
3.98419E-03	0.096713
3.98550E-03	0.0909838
3.98713E-03	0.0842221
3.98876E-03	0.0778366
3.99007E-03	0.0730064
3.99138E-03	0.0684297
3.99260E-03	0.0643769
3.99301E-03	0.0631056
3.99383E-03	0.0605799
3.99493E-03	0.0573797
3.99595E-03	0.0545969
3.99677E-03	0.0524976
3.99758E-03	0.0505131
3.99840E-03	0.0486451
3.99922E-03	0.0468957
3.99987E-03	0.0455828
4.00048E-03	0.0444229
4.00105E-03	0.0434031
4.00162E-03	0.0424448
4.00220E-03	0.0415488
4.00269E-03	0.040831
4.00320E-03	0.040133
4.00346E-03	0.039794
4.00360E-03	0.0396151
4.00401E-03	0.039137
4.00444E-03	0.0386709
4.00485E-03	0.0382615
4.00518E-03	0.0379583
4.00549E-03	0.0376855
4.00578E-03	0.0374568
4.00606E-03	0.037245
4.00635E-03	0.0370503
4.00663E-03	0.0368788
4.00687E-03	0.0367398
4.00712E-03	0.0366135
4.00736E-03	0.0365001
4.00754E-03	0.0364234
4.00775E-03	0.0363468
4.00795E-03	0.0362792
4.00816E-03	0.0362206
4.00831E-03	0.0361826
4.00844E-03	0.0361538
4.00861E-03	0.0361237
4.00877E-03	0.0360995
4.00893E-03	0.0360811
4.00910E-03	0.0360687
4.00922E-03	0.0360633
4.00934E-03	0.0360612
4.00946E-03	0.0360624
4.00959E-03	0.036067
4.00972E-03	0.0360756
4.00986E-03	0.0360898
4.01001E-03	0.0361087
4.01015E-03	0.0361324
4.01030E-03	0.0361609
4.01040E-03	0.0361825
4.01044E-03	0.0361942
4.01054E-03	0.0362191
4.01064E-03	0.0362461
4.01078E-03	0.0362908
4.01093E-03	0.0363403
4.01107E-03	0.0363947
4.01122E-03	0.036454
4.01134E-03	0.0365077
4.01146E-03	0.036565
4.01159E-03	0.0366257
4.01171E-03	0.03669
4.01183E-03	0.0367577
4.01195E-03	0.036829
4.01212E-03	0.0369296
4.01228E-03	0.0370365
4.01244E-03	0.0371498
4.01262E-03	0.037277
4.01280E-03	0.0374197
4.01299E-03	0.0375704
4.01317E-03	0.0377293
4.01326E-03	0.0378129
4.01336E-03	0.0379083
4.01357E-03	0.0381091
4.01377E-03	0.0383201
4.01398E-03	0.0385413
4.01420E-03	0.0387964
4.01445E-03	0.039089
4.01469E-03	0.0393965
4.01493E-03	0.0397189
4.01520E-03	0.0400853
4.01549E-03	0.0404997
4.01577E-03	0.0409349
4.01606E-03	0.0413909
4.01640E-03	0.0419729
4.01671E-03	0.0425123
4.01712E-03	0.0432695
4.01753E-03	0.0440705
4.01796E-03	0.0449591
4.01832E-03	0.0457599
4.01881E-03	0.0468843
4.01930E-03	0.0480742
4.01979E-03	0.0493302
4.02028E-03	0.0506532
4.02077E-03	0.0520437
4.02126E-03	0.0535157
4.02192E-03	0.0555857
4.02257E-03	0.0577797
4.02322E-03	0.0600993
4.02388E-03	0.0625462
4.02469E-03	0.0657865
4.02543E-03	0.0688784
4.02624E-03	0.0725122
4.02706E-03	0.0763585
4.02788E-03	0.080421
4.02878E-03	0.0851442
4.02959E-03	0.0896962
4.02976E-03	0.090612
4.03074E-03	0.0964369
4.03172E-03	0.102599
4.03286E-03	0.110227
4.03384E-03	0.11715
4.03482E-03	0.124436
4.03613E-03	0.134725
4.03743E-03	0.145681
4.03841E-03	0.154398
4.03866E-03	0.156586
4.03988E-03	0.168151
4.04111E-03	0.180358
4.04233E-03	0.193224
4.04397E-03	0.211435
4.04560E-03	0.230894
4.04690E-03	0.247497
4.04723E-03	0.251661
4.04886E-03	0.273827
4.05050E-03	0.297384
4.05197E-03	0.319819
4.05393E-03	0.351617
4.05572E-03	0.382823
4.05589E-03	0.385667
4.05785E-03	0.422141
4.05948E-03	0.454405
4.06120E-03	0.490188
4.06160E-03	0.49919
4.06291E-03	0.528049
4.06520E-03	0.58185
4.06748E-03	0.639609
4.06969E-03	0.699352
4.07189E-03	0.763184
4.07336E-03	0.808625
4.07410E-03	0.831381
4.07630E-03	0.904332
4.07851E-03	0.98213
4.07924E-03	1.00976
4.08088E-03	1.07125
4.08333E-03	1.16996
4.08577E-03	1.27568
4.08822E-03	1.38904
4.09067E-03	1.51033
4.09231E-03	1.59682
4.09312E-03	1.64013
4.09557E-03	1.77906
4.09802E-03	1.92756
4.09884E-03	1.98046
4.10047E-03	2.08639
4.10292E-03	2.25618
4.10374E-03	2.31665
4.10537E-03	2.43772
4.10782E-03	2.63173
4.10864E-03	2.70082
4.11027E-03	2.83915
4.11272E-03	3.06082
4.11354E-03	3.13978
4.11517E-03	3.29784
4.11762E-03	3.55121
4.11844E-03	3.64148
4.12007E-03	3.8222
4.12252E-03	4.112
4.12334E-03	4.21529
4.12497E-03	4.42209
4.12742E-03	4.75388
4.12824E-03	4.87223
4.12987E-03	5.10914
4.13150E-03	5.35977
4.13306E-03	5.61378
4.13461E-03	5.86803
4.13693E-03	6.27976
4.13771E-03	6.42652
4.13926E-03	6.72033
4.14159E-03	7.19136
4.14237E-03	7.35924
4.14392E-03	7.69531
4.14695E-03	8.40675
4.14923E-03	8.98404
4.15151E-03	9.60163
4.15379E-03	10.2638
4.15607E-03	10.9732
4.15862E-03	11.8274
4.15946E-03	12.1357
4.16116E-03	12.7526
4.16286E-03	13.4214
4.16371E-03	13.7561
4.16626E-03	14.8429
4.16881E-03	16.0216
4.16966E-03	16.4481
4.17122E-03	17.2361
4.17279E-03	18.0891
4.17358E-03	18.516
4.17593E-03	19.9017
4.17828E-03	21.4043
4.17906E-03	21.9477
4.18063E-03	23.0351
4.18220E-03	24.2164
4.18298E-03	24.8075
4.18533E-03	26.7361
4.18769E-03	28.8384
4.18847E-03	29.6029
4.19004E-03	31.1328
4.19161E-03	32.8043
4.19239E-03	33.6406
4.19474E-03	36.386
4.19709E-03	39.3969
4.19945E-03	42.7044
4.20180E-03	46.344
4.20415E-03	50.3564
4.20650E-03	54.7881
4.20872E-03	59.4063
4.20885E-03	59.7052
4.21088E-03	64.34
4.21120E-03	65.1626
4.21303E-03	69.7716
4.21356E-03	71.2225
4.21519E-03	75.7592
4.21591E-03	77.9586
4.21735E-03	82.3598
4.21826E-03	85.4496
4.21944E-03	89.4245
4.22048E-03	93.3199
4.22140E-03	96.7301
4.22244E-03	101.015
4.22336E-03	104.765
4.22440E-03	109.48
4.22532E-03	113.608
4.22636E-03	118.801
4.22728E-03	123.348
4.22832E-03	129.073
4.22924E-03	134.086
4.23028E-03	140.371
4.23100E-03	144.694
4.23224E-03	152.851
4.23276E-03	156.287
4.23420E-03	166.609
4.23453E-03	168.956
4.23616E-03	181.771
4.23629E-03	182.797
4.23805E-03	197.91
4.23812E-03	198.522
4.23995E-03	215.67
4.24008E-03	217.014
4.24191E-03	235.829
4.24230E-03	240.244
4.24387E-03	257.914
4.24465E-03	267.556
4.24583E-03	282.024
4.24700E-03	297.723
4.24779E-03	308.193
4.24936E-03	330.689
4.24978E-03	336.783
4.25184E-03	368.226
4.25249E-03	378.785
4.25458E-03	412.579
4.25778E-03	465.567
4.26004E-03	502.864
4.26007E-03	503.404
4.26229E-03	537.23
4.26255E-03	541.207
4.26379E-03	557.838
4.26441E-03	566.148
4.26530E-03	576.012
4.26628E-03	586.96
4.26698E-03	593.299
4.26752E-03	598.104
4.26867E-03	606.172
4.26876E-03	606.813
4.26979E-03	611.883
4.27000E-03	612.907
4.27110E-03	615.591
4.27157E-03	616.713
4.27209E-03	617.014
4.27242E-03	616.619
4.27366E-03	615.099
4.27417E-03	613.16
4.27523E-03	609.118
4.27592E-03	604.8
4.27679E-03	599.332
4.27755E-03	593.043
4.27836E-03	586.198
4.27980E-03	571.165
4.28071E-03	561.592
4.28205E-03	545.176
4.28307E-03	532.761
4.28777E-03	469.164
4.28960E-03	444.43
4.29169E-03	416.172
4.29195E-03	412.861
4.29430E-03	383.069
4.29482E-03	376.451
4.29665E-03	354.978
4.29718E-03	348.846
4.29901E-03	328.965
4.29953E-03	323.288
4.30136E-03	305.016
4.30188E-03	299.797
4.30293E-03	290.247
4.30423E-03	278.313
4.30449E-03	276.136
4.30606E-03	263.079
4.30658E-03	258.728
4.30763E-03	250.806
4.30894E-03	240.907
4.30998E-03	233.704
4.31129E-03	224.704
4.31233E-03	218.156
4.31364E-03	209.974
4.31468E-03	204.018
4.31599E-03	196.576
4.31704E-03	191.154
4.31834E-03	184.38
4.31939E-03	179.437
4.32069E-03	173.263
4.32174E-03	168.751
4.32305E-03	163.115
4.32409E-03	158.99
4.32540E-03	153.837
4.32644E-03	150.06
4.32775E-03	145.34
4.32880E-03	141.874
4.33010E-03	137.544
4.33115E-03	134.401
4.33324E-03	128.118
4.33350E-03	127.414
4.33585E-03	121.075
4.33637E-03	119.667
4.33820E-03	115.232
4.33951E-03	112.065
4.34055E-03	109.778
4.34264E-03	105.205
4.34291E-03	104.687
4.34526E-03	100.029
4.34578E-03	98.9941
4.34839E-03	94.2945
4.34892E-03	93.3549
4.35153E-03	89.075
4.35205E-03	88.2193
4.35467E-03	84.3106
4.35519E-03	83.5292
4.35780E-03	79.9498
4.35832E-03	79.2342
4.36094E-03	75.9477
4.36146E-03	75.2906
4.36407E-03	72.3248
4.36616E-03	69.953
4.36747E-03	68.6364
4.37087E-03	65.2147
4.37426E-03	62.173
4.37583E-03	60.7696
4.37766E-03	59.3146
4.38093E-03	56.7172
4.38145E-03	56.3441
4.38524E-03	53.6397
4.38602E-03	53.0803
4.38903E-03	51.1533
4.39102E-03	49.876
4.39282E-03	48.836
4.39602E-03	46.9836
4.39772E-03	46.0957
4.40147E-03	44.1328
4.40262E-03	43.5992
4.40784E-03	41.1612
4.41176E-03	39.5215
4.41421E-03	38.497
4.41764E-03	37.2041
4.42025E-03	36.2193
4.42352E-03	35.101
4.42613E-03	34.2066
4.42940E-03	33.1854
4.43201E-03	32.3687
4.43528E-03	31.4459
4.43985E-03	30.1543
4.44116E-03	29.8229
4.44704E-03	28.3322
4.44769E-03	28.1666
4.45292E-03	26.9727
4.45553E-03	26.376
4.45880E-03	25.6983
4.46337E-03	24.7497
4.46468E-03	24.5027
4.46860E-03	23.7619
4.47121E-03	23.2681
4.47644E-03	22.3617
4.47905E-03	21.9086
4.48428E-03	21.0742
4.48689E-03	20.6572
4.49212E-03	19.8843
4.49473E-03	19.498
4.49995E-03	18.7918
4.50649E-03	17.9094
4.50779E-03	17.7495
4.51563E-03	16.7906
4.51825E-03	16.4711
4.52347E-03	15.8865
4.53001E-03	15.1559
4.53131E-03	15.0211
4.53915E-03	14.212
4.54176E-03	13.9424
4.54699E-03	13.4399
4.55352E-03	12.8119
4.55483E-03	12.6937
4.56267E-03	11.9847
4.56528E-03	11.7485
4.57222E-03	11.1551
4.57541E-03	10.8829
4.57998E-03	10.4922
4.58341E-03	10.2127
4.59141E-03	9.56086
4.59713E-03	9.09548
4.59827E-03	9.00445
4.60513E-03	8.45855
4.61016E-03	8.05875
4.61518E-03	7.65916
4.62019E-03	7.26138
4.62516E-03	6.86702
4.63013E-03	6.47299
4.63068E-03	6.42925
4.63344E-03	6.20146
4.63675E-03	5.92831
4.64006E-03	5.65542
4.64227E-03	5.47368
4.64337E-03	5.37834
4.64668E-03	5.09265
4.64999E-03	4.80736
4.65055E-03	4.75989
4.65248E-03	4.5853
4.65496E-03	4.36114
4.65717E-03	4.16221
4.65745E-03	4.13616
4.65993E-03	3.90212
4.66214E-03	3.69453
4.66241E-03	3.66738
4.66490E-03	3.42364
4.66710E-03	3.20759
4.66738E-03	3.17935
4.66904E-03	3.01034
4.67069E-03	2.84175
4.67145E-03	2.76469
4.67218E-03	2.68758
4.67415E-03	2.4789
4.67547E-03	2.34027
4.67580E-03	2.30609
4.67679E-03	2.19829
4.67810E-03	2.05556
4.67942E-03	1.91341
4.67998E-03	1.85344
4.68074E-03	1.77054
4.68206E-03	1.62743
4.68314E-03	1.51052
4.68422E-03	1.39426
4.68530E-03	1.27874
4.68591E-03	1.21413
4.68638E-03	1.16549
4.68746E-03	1.05503
4.68779E-03	1.0221
4.68855E-03	0.948548
4.68905E-03	0.899844
4.68963E-03	0.846946
4.69005E-03	0.808959
4.69071E-03	0.751767
4.69084E-03	0.741045
4.69147E-03	0.690163
4.69159E-03	0.680567
4.69210E-03	0.642887
4.69248E-03	0.616448
4.69260E-03	0.607836
4.69311E-03	0.575863
4.69336E-03	0.561091
4.69349E-03	0.553935
4.69387E-03	0.534198
4.69415E-03	0.520634
4.69425E-03	0.516473
4.69440E-03	0.509878
4.69472E-03	0.498051
4.69495E-03	0.490242
4.69519E-03	0.483402
4.69543E-03	0.478119
4.69567E-03	0.473925
4.69590E-03	0.470883
4.69614E-03	0.469643
4.69630E-03	0.469531
4.69645E-03	0.470018
4.69661E-03	0.471126
4.69677E-03	0.472881
4.69692E-03	0.475645
4.69708E-03	0.479072
4.69721E-03	0.482454
4.69739E-03	0.488023
4.69740E-03	0.488595
4.69754E-03	0.494015
4.69767E-03	0.499546
4.69782E-03	0.506813
4.69797E-03	0.514867
4.69812E-03	0.523738
4.69825E-03	0.53269
4.69827E-03	0.533497
4.69841E-03	0.544595
4.69856E-03	0.556608
4.69871E-03	0.569571
4.69885E-03	0.581629
4.69901E-03	0.598598
4.69918E-03	0.616894
4.69934E-03	0.636547
4.69948E-03	0.654606
4.69951E-03	0.657705
4.69967E-03	0.680867
4.69984E-03	0.705577
4.70001E-03	0.731896
4.70012E-03	0.750564
4.70017E-03	0.760132
4.70034E-03	0.790592
4.70050E-03	0.82289
4.70067E-03	0.857109
4.70075E-03	0.874359
4.70083E-03	0.893754
4.70100E-03	0.932873
4.70117E-03	0.974192
4.70133E-03	1.0178
4.70138E-03	1.03095
4.70150E-03	1.06447
4.70166E-03	1.11391
4.70188E-03	1.18394
4.70201E-03	1.2268
4.70210E-03	1.25955
4.70232E-03	1.34125
4.70251E-03	1.41575
4.70264E-03	1.46833
4.70270E-03	1.49502
4.70289E-03	1.5797
4.70308E-03	1.66924
4.70311E-03	1.68503
4.70327E-03	1.76491
4.70346E-03	1.8662
4.70359E-03	1.93757
4.70365E-03	1.97374
4.70384E-03	2.08832
4.70403E-03	2.20935
4.70416E-03	2.29459
4.70422E-03	2.33781
4.70442E-03	2.48645
4.70466E-03	2.66924
4.70472E-03	2.72144
4.70490E-03	2.86683
4.70513E-03	3.07905
4.70524E-03	3.18324
4.70537E-03	3.3077
4.70561E-03	3.55374
4.70566E-03	3.61527
4.70584E-03	3.81933
4.70608E-03	4.10455
4.70632E-03	4.4132
4.70650E-03	4.67254
4.70655E-03	4.74495
4.70679E-03	5.10352
4.70692E-03	5.3185
4.70703E-03	5.49012
4.70726E-03	5.90754
4.70734E-03	6.05713
4.70750E-03	6.35903
4.70774E-03	6.84616
4.70776E-03	6.88463
4.70797E-03	7.37498
4.70817E-03	7.8387
4.70821E-03	7.94611
4.70845E-03	8.56648
4.70858E-03	8.93706
4.70868E-03	9.23856
4.70889E-03	9.86448
4.70892E-03	9.96859
4.70916E-03	10.7633
4.70926E-03	11.119
4.70940E-03	11.6281
4.70964E-03	12.6082
4.70965E-03	12.663
4.70989E-03	13.6832
4.70992E-03	13.8335
4.71013E-03	14.8621
4.71018E-03	15.1265
4.71038E-03	16.157
4.71045E-03	16.5572
4.71063E-03	17.5817
4.71071E-03	18.1417
4.71086E-03	19.0673
4.71098E-03	19.9016
4.71109E-03	20.6525
4.71123E-03	21.7128
4.71131E-03	22.3914
4.71145E-03	23.5568
4.71154E-03	24.3024
4.71168E-03	25.5849
4.71177E-03	26.4054
4.71191E-03	27.8188
4.71200E-03	28.7231
4.71213E-03	30.2832
4.71222E-03	31.2814
4.71236E-03	32.9781
4.71237E-03	33.1332
4.71253E-03	35.1166
4.71259E-03	35.9981
4.71268E-03	37.2387
4.71282E-03	39.3187
4.71283E-03	39.5088
4.71298E-03	41.9435
4.71302E-03	42.7018
4.71313E-03	44.5521
4.71321E-03	46.0639
4.71328E-03	47.3486
4.71340E-03	49.7198
4.71344E-03	50.3465
4.71359E-03	53.5616
4.71374E-03	57.0122
4.71378E-03	58.0883
4.71389E-03	60.7123
4.71397E-03	62.8568
4.71404E-03	64.6788
4.71416E-03	68.0412
4.71419E-03	68.9297
4.71434E-03	73.4836
4.71435E-03	73.6882
4.71453E-03	79.6356
4.71457E-03	80.9691
4.71472E-03	86.3285
4.71482E-03	90.1945
4.71491E-03	93.594
4.71508E-03	100.412
4.71510E-03	101.466
4.71529E-03	109.984
4.71533E-03	111.812
4.71547E-03	118.54
4.71558E-03	124.408
4.71564E-03	127.354
4.71581E-03	136.736
4.71583E-03	138.222
4.71604E-03	150.148
4.71609E-03	153.346
4.71626E-03	164.575
4.71634E-03	169.705
4.71649E-03	179.995
4.71672E-03	196.326
4.71706E-03	222.375
4.71722E-03	235.597
4.71742E-03	251.88
4.71789E-03	290.463
4.71818E-03	314.372
4.71831E-03	324.222
4.71858E-03	345.304
4.71859E-03	345.754
4.71884E-03	364.029
4.71910E-03	380.372
4.71911E-03	380.928
4.71934E-03	393.533
4.71936E-03	394.385
4.71962E-03	405.831
4.71963E-03	406.495
4.71983E-03	413.052
4.71987E-03	414.255
4.72000E-03	417.364
4.72002E-03	417.854
4.72021E-03	420.658
4.72025E-03	421.186
4.72043E-03	421.944
4.72064E-03	420.65
4.72069E-03	420.354
4.72086E-03	417.412
4.72091E-03	416.572
4.72111E-03	410.964
4.72112E-03	410.705
4.72137E-03	401.552
4.72141E-03	399.896
4.72154E-03	393.976
4.72168E-03	387.422
4.72188E-03	376.387
4.72194E-03	372.918
4.72230E-03	351.149
4.72237E-03	346.057
4.72283E-03	315.448
4.72313E-03	294.62
4.72343E-03	273.841
4.72354E-03	266.932
4.72374E-03	253.75
4.72389E-03	243.896
4.72404E-03	234.617
4.72424E-03	222.288
4.72427E-03	220.851
4.72449E-03	207.969
4.72454E-03	205.115
4.72473E-03	195.198
4.72485E-03	189.271
4.72500E-03	182.003
4.72515E-03	174.767
4.72526E-03	169.808
4.72545E-03	161.579
4.72553E-03	158.584
4.72576E-03	149.643
4.72579E-03	148.275
4.72598E-03	141.467
4.72606E-03	138.95
4.72624E-03	133.102
4.72626E-03	132.333
4.72646E-03	126.208
4.72649E-03	125.445
4.72667E-03	120.535
4.72674E-03	118.438
4.72687E-03	115.225
4.72699E-03	112.022
4.72707E-03	110.254
4.72725E-03	106.142
4.72727E-03	105.601
4.72747E-03	101.288
4.72750E-03	100.751
4.72768E-03	97.2825
4.72775E-03	95.8009
4.72793E-03	92.6708
4.72813E-03	89.107
4.72818E-03	88.3137
4.72843E-03	84.3624
4.72851E-03	83.1811
4.72869E-03	80.7182
4.72889E-03	77.913
4.72894E-03	77.2837
4.72919E-03	74.1484
4.72927E-03	73.2107
4.72944E-03	71.2403
4.72965E-03	68.9954
4.72970E-03	68.4797
4.72990E-03	66.4238
4.73001E-03	65.4051
4.73030E-03	62.6546
4.73032E-03	62.5216
4.73063E-03	59.9107
4.73071E-03	59.2634
4.73094E-03	57.4889
4.73111E-03	56.198
4.73125E-03	55.2289
4.73151E-03	53.4161
4.73156E-03	53.1184
4.73187E-03	51.1693
4.73192E-03	50.8831
4.73218E-03	49.3941
4.73252E-03	47.4851
4.73255E-03	47.3367
4.73292E-03	45.5062
4.73313E-03	44.4966
4.73330E-03	43.7728
4.73367E-03	42.1576
4.73376E-03	41.7463
4.73404E-03	40.6778
4.73439E-03	39.3076
4.73441E-03	39.2531
4.73496E-03	37.3363
4.73502E-03	37.133
4.73540E-03	35.9618
4.73565E-03	35.1832
4.73591E-03	34.4789
4.73629E-03	33.4256
4.73641E-03	33.1066
4.73692E-03	31.8344
4.73742E-03	30.677
4.73755E-03	30.3884
4.73793E-03	29.5958
4.73818E-03	29.0687
4.73843E-03	28.5882
4.73893E-03	27.6371
4.73894E-03	27.6303
4.73950E-03	26.6572
4.73969E-03	26.3426
4.74013E-03	25.6489
4.74044E-03	25.1661
4.74076E-03	24.7223
4.74139E-03	23.848
4.74157E-03	23.5901
4.74201E-03	23.0477
4.74264E-03	22.2793
4.74270E-03	22.2046
4.74327E-03	21.5891
4.74383E-03	20.9774
4.74421E-03	20.6134
4.74507E-03	19.7844
4.74593E-03	19.0484
4.74636E-03	18.6812
4.74679E-03	18.3531
4.74765E-03	17.6984
4.74851E-03	17.1107
4.74894E-03	16.8174
4.74937E-03	16.5521
4.75023E-03	16.0225
4.75109E-03	15.5462
4.75178E-03	15.1658
4.75230E-03	14.9082
4.75316E-03	14.4798
4.75350E-03	14.3265
4.75471E-03	13.7911
4.75523E-03	13.5621
4.75591E-03	13.2922
4.75712E-03	12.8209
4.75729E-03	12.7537
4.75832E-03	12.3943
4.75936E-03	12.0354
4.75953E-03	11.9817
4.76073E-03	11.6063
4.76142E-03	11.3921
4.76228E-03	11.1509
4.76366E-03	10.7657
4.76383E-03	10.7223
4.76538E-03	10.3318
4.76598E-03	10.1802
4.76693E-03	9.96412
4.76831E-03	9.65021
4.76848E-03	9.61487
4.77003E-03	9.29724
4.77141E-03	9.01533
4.77235E-03	8.84174
4.77450E-03	8.44791
4.77468E-03	8.41958
4.77700E-03	8.03774
4.77795E-03	7.88241
4.77932E-03	7.67876
4.78139E-03	7.3737
4.78165E-03	7.33888
4.78397E-03	7.02586
4.78483E-03	6.91006
4.78639E-03	6.71742
4.78828E-03	6.48422
4.78899E-03	6.4026
4.79160E-03	6.10678
4.79199E-03	6.06257
4.79420E-03	5.83025
4.79570E-03	5.67336
4.79767E-03	5.48015
4.79941E-03	5.31051
4.80126E-03	5.14082
4.80312E-03	4.9713
4.80498E-03	4.81422
4.80869E-03	4.50036
4.81240E-03	4.21209
4.81425E-03	4.06808
4.81796E-03	3.80162
4.81982E-03	3.66853
4.82353E-03	3.42098
4.82539E-03	3.29732
4.82910E-03	3.06657
4.83095E-03	2.9513
4.83536E-03	2.69515
4.83652E-03	2.62778
4.83745E-03	2.57745
4.84209E-03	2.32597
4.84440E-03	2.20709
4.84580E-03	2.13583
4.84951E-03	1.95441
4.85136E-03	1.8685
4.85415E-03	1.73978
4.85786E-03	1.57776
4.85879E-03	1.53941
4.86157E-03	1.4245
4.86574E-03	1.26246
4.86621E-03	1.24557
4.86899E-03	1.14432
4.87224E-03	1.03368
4.87270E-03	1.01881
4.87467E-03	0.955677
4.87757E-03	0.868486
4.87920E-03	0.823161
4.88036E-03	0.790835
4.88244E-03	0.736662
4.88453E-03	0.686059
4.88569E-03	0.660002
4.88662E-03	0.639198
4.88888E-03	0.592824
4.89039E-03	0.564501
4.89189E-03	0.538309
4.89218E-03	0.533691
4.89340E-03	0.514357
4.89491E-03	0.492678
4.89642E-03	0.473371
4.89792E-03	0.456519
4.89920E-03	0.444222
4.89984E-03	0.439101
4.90077E-03	0.43171
4.90233E-03	0.422105
4.90390E-03	0.41547
4.90494E-03	0.412749
4.90625E-03	0.411328
4.90677E-03	0.41139
4.90703E-03	0.41175
4.90812E-03	0.413326
4.90920E-03	0.416726
4.91029E-03	0.421797
4.91138E-03	0.428584
4.91246E-03	0.437135
4.91355E-03	0.447499
4.91457E-03	0.458909
4.91464E-03	0.459729
4.91573E-03	0.473939
4.91681E-03	0.490114
4.91790E-03	0.508305
4.91921E-03	0.532992
4.92036E-03	0.557322
4.92038E-03	0.557691
4.92155E-03	0.585028
4.92272E-03	0.615007
4.92390E-03	0.647707
4.92507E-03	0.683214
4.92624E-03	0.721614
4.92626E-03	0.722228
4.92741E-03	0.763083
4.92854E-03	0.806031
4.93018E-03	0.873386
4.93181E-03	0.9472
4.93224E-03	0.968344
4.93345E-03	1.02789
4.93508E-03	1.1157
4.93672E-03	1.21089
4.93839E-03	1.31606
4.93866E-03	1.33499
4.94006E-03	1.42976
4.94173E-03	1.55233
4.94340E-03	1.68417
4.94381E-03	1.71957
4.94507E-03	1.82589
4.94674E-03	1.97793
4.94841E-03	2.1407
4.94896E-03	2.19868
4.95008E-03	2.31476
4.95175E-03	2.50061
4.95342E-03	2.69877
4.95383E-03	2.75164
4.95518E-03	2.92215
4.95713E-03	3.18703
4.95870E-03	3.41761
4.95907E-03	3.47191
4.96102E-03	3.7781
4.96297E-03	4.10668
4.96362E-03	4.22413
4.96492E-03	4.45923
4.96687E-03	4.83717
4.96863E-03	5.20345
4.96882E-03	5.24204
4.97076E-03	5.67584
4.97271E-03	6.14013
4.97364E-03	6.3767
4.97466E-03	6.63711
4.97661E-03	7.16891
4.97856E-03	7.73766
4.97865E-03	7.76662
4.98051E-03	8.34627
4.98245E-03	8.99704
4.98366E-03	9.42776
4.98440E-03	9.69302
4.98644E-03	10.4742
4.98867E-03	11.3912
4.99090E-03	12.3818
4.99201E-03	12.9166
4.99312E-03	13.4516
4.99535E-03	14.6074
4.99758E-03	15.8564
4.99869E-03	16.5314
4.99980E-03	17.2066
5.00203E-03	18.6664
5.00426E-03	20.2458
5.00537E-03	21.1002
5.00648E-03	21.955
5.00871E-03	23.8055
5.01094E-03	25.8104
5.01205E-03	26.8966
5.01316E-03	27.9833
5.01539E-03	30.3397
5.01762E-03	32.8972
5.01873E-03	34.2853
5.01984E-03	35.674
5.02207E-03	38.6907
5.02430E-03	41.9711
5.02541E-03	43.7551
5.02652E-03	45.5398
5.02875E-03	49.4245
5.03098E-03	53.657
5.03209E-03	55.9632
5.03320E-03	58.2704
5.03543E-03	63.302
5.03766E-03	68.7937
5.03793E-03	69.543
5.03988E-03	74.7901
5.04044E-03	76.4273
5.04211E-03	81.3404
5.04294E-03	84.0242
5.04434E-03	88.4985
5.04545E-03	92.4098
5.04656E-03	96.3223
5.04795E-03	101.667
5.04879E-03	104.875
5.05046E-03	111.885
5.05101E-03	114.222
5.05296E-03	123.159
5.05324E-03	124.436
5.05547E-03	135.588
5.05769E-03	147.756
5.05797E-03	149.413
5.05992E-03	161.012
5.06048E-03	164.616
5.06215E-03	175.429
5.06437E-03	191.071
5.06549E-03	199.529
5.06660E-03	207.989
5.06883E-03	226.218
5.07147E-03	249.593
5.07235E-03	258.001
5.07412E-03	274.821
5.07676E-03	301.655
5.08029E-03	339.465
5.08293E-03	368.709
5.08627E-03	405.643
5.08794E-03	424.106
5.08877E-03	432.739
5.09128E-03	458.629
5.09378E-03	481.817
5.09629E-03	501.814
5.09800E-03	512.857
5.09870E-03	517.416
5.09970E-03	522.424
5.10051E-03	526.456
5.10157E-03	530.311
5.10232E-03	533.047
5.10343E-03	535.569
5.10413E-03	537.143
5.10468E-03	537.625
5.10594E-03	538.73
5.10716E-03	538.167
5.10779E-03	537.875
5.10965E-03	534.676
5.11178E-03	527.842
5.11243E-03	525.76
5.11392E-03	518.739
5.11522E-03	512.591
5.11707E-03	501.992
5.11818E-03	494.694
5.12078E-03	477.661
5.12765E-03	426.986
5.12820E-03	422.878
5.13136E-03	399.43
5.13377E-03	381.503
5.13414E-03	378.888
5.13692E-03	359.28
5.13748E-03	355.359
5.13971E-03	340.657
5.14119E-03	330.859
5.14249E-03	322.918
5.14490E-03	308.174
5.14527E-03	306.09
5.14806E-03	290.465
5.14861E-03	287.341
5.15084E-03	275.922
5.15233E-03	268.311
5.15362E-03	262.245
5.15604E-03	250.982
5.15641E-03	249.407
5.15919E-03	237.593
5.15975E-03	235.231
5.16197E-03	226.644
5.16346E-03	220.921
5.16476E-03	216.368
5.16717E-03	207.917
5.16754E-03	206.734
5.17032E-03	197.863
5.17088E-03	196.09
5.17311E-03	189.628
5.17459E-03	185.32
5.17589E-03	181.882
5.17830E-03	175.498
5.17867E-03	174.601
5.18146E-03	167.87
5.18201E-03	166.525
5.18424E-03	161.596
5.18572E-03	158.311
5.18795E-03	153.79
5.18944E-03	150.777
5.19166E-03	146.706
5.19500E-03	140.602
5.19537E-03	140.001
5.19816E-03	135.499
5.20057E-03	131.598
5.20094E-03	131.064
5.20428E-03	126.263
5.20613E-03	123.596
5.20678E-03	122.759
5.20929E-03	119.533
5.21142E-03	116.785
5.21179E-03	116.353
5.21346E-03	114.409
5.21504E-03	112.574
5.21615E-03	111.28
5.21699E-03	110.408
5.21820E-03	109.149
5.21940E-03	107.89
5.22061E-03	106.633
5.22181E-03	105.377
5.22246E-03	104.701
5.22272E-03	104.467
5.22362E-03	103.639
5.22453E-03	102.811
5.22513E-03	102.261
5.22571E-03	101.732
5.22627E-03	101.226
5.22682E-03	100.72
5.22738E-03	100.216
5.22794E-03	99.7136
5.22835E-03	99.338
5.22840E-03	99.2964
5.22877E-03	99.0159
5.22919E-03	98.7019
5.22961E-03	98.3897
5.22989E-03	98.1828
5.23023E-03	97.9258
5.23058E-03	97.671
5.23084E-03	97.4816
5.23110E-03	97.294
5.23136E-03	97.1085
5.23162E-03	96.9257
5.23180E-03	96.8057
5.23197E-03	96.6873
5.23215E-03	96.5711
5.23232E-03	96.4573
5.23239E-03	96.4155
5.23249E-03	96.383
5.23267E-03	96.3344
5.23284E-03	96.2921
5.23295E-03	96.2666
5.23306E-03	96.2436
5.23317E-03	96.2235
5.23328E-03	96.2068
5.23339E-03	96.1938
5.23350E-03	96.1851
5.23361E-03	96.1814
5.23372E-03	96.1833
5.23377E-03	96.1865
5.23383E-03	96.2168
5.23387E-03	96.233
5.23392E-03	96.2807
5.23400E-03	96.3635
5.23408E-03	96.4512
5.23417E-03	96.5445
5.23425E-03	96.6438
5.23433E-03	96.7496
5.23442E-03	96.8627
5.23448E-03	96.9562
5.23456E-03	97.0695
5.23457E-03	97.0953
5.23463E-03	97.2443
5.23470E-03	97.4416
5.23478E-03	97.6473
5.23485E-03	97.8619
5.23493E-03	98.0861
5.23497E-03	98.2367
5.23500E-03	98.349
5.23508E-03	98.6742
5.23515E-03	99.0111
5.23522E-03	99.3604
5.23530E-03	99.7227
5.23537E-03	100.099
5.23538E-03	100.127
5.23545E-03	100.589
5.23552E-03	101.102
5.23560E-03	101.631
5.23569E-03	102.297
5.23576E-03	102.866
5.23584E-03	103.69
5.23592E-03	104.487
5.23600E-03	105.307
5.23611E-03	106.439
5.23614E-03	106.792
5.23622E-03	107.766
5.23632E-03	109.205
5.23643E-03	110.693
5.23648E-03	111.461
5.23653E-03	112.252
5.23662E-03	113.877
5.23672E-03	115.544
5.23681E-03	117.253
5.23682E-03	117.351
5.23696E-03	120.177
5.23710E-03	123.204
5.23714E-03	124.011
5.23724E-03	126.511
5.23738E-03	129.838
5.23746E-03	131.674
5.23759E-03	135.17
5.23785E-03	142.184
5.23790E-03	143.634
5.23841E-03	157.822
5.23856E-03	161.863
5.23868E-03	164.814
5.23890E-03	170.22
5.23894E-03	171.203
5.23905E-03	173.494
5.23920E-03	176.294
5.23925E-03	177.228
5.23938E-03	179.034
5.23953E-03	181.059
5.23956E-03	181.42
5.23967E-03	182.27
5.23977E-03	182.983
5.23979E-03	183.067
5.23993E-03	183.424
5.23996E-03	183.486
5.24000E-03	183.418
5.24016E-03	182.906
5.24025E-03	182.506
5.24029E-03	182.167
5.24046E-03	180.546
5.24048E-03	180.273
5.24062E-03	178.128
5.24077E-03	175.78
5.24079E-03	175.37
5.24095E-03	172.089
5.24111E-03	168.396
5.24113E-03	168.053
5.24133E-03	162.702
5.24151E-03	157.905
5.24156E-03	156.415
5.24227E-03	135.658
5.24229E-03	135.097
5.24249E-03	129.668
5.24265E-03	125.207
5.24273E-03	123.048
5.24282E-03	121.023
5.24294E-03	118.088
5.24307E-03	115.221
5.24310E-03	114.363
5.24320E-03	112.357
5.24330E-03	110.469
5.24339E-03	108.622
5.24341E-03	108.206
5.24349E-03	106.972
5.24358E-03	105.41
5.24368E-03	103.888
5.24377E-03	102.406
5.24379E-03	102.147
5.24387E-03	101.13
5.24397E-03	99.8587
5.24407E-03	98.6276
5.24417E-03	97.4851
5.24427E-03	96.4494
5.24437E-03	95.4915
5.24445E-03	94.7341
5.24447E-03	94.5887
5.24457E-03	93.8188
5.24467E-03	93.0771
5.24474E-03	92.5972
5.24478E-03	92.3272
5.24481E-03	92.1645
5.24487E-03	91.7914
5.24494E-03	91.4283
5.24502E-03	91.0005
5.24510E-03	90.5856
5.24518E-03	90.1826
5.24527E-03	89.7907
5.24535E-03	89.4976
5.24543E-03	89.2141
5.24551E-03	88.9393
5.24559E-03	88.6726
5.24567E-03	88.4133
5.24575E-03	88.1609
5.24580E-03	88.0132
5.24583E-03	87.938
5.24592E-03	87.7559
5.24600E-03	87.579
5.24608E-03	87.4069
5.24616E-03	87.2391
5.24627E-03	87.0108
5.24637E-03	86.8206
5.24643E-03	86.6967
5.24647E-03	86.6489
5.24656E-03	86.5095
5.24666E-03	86.3737
5.24676E-03	86.241
5.24689E-03	86.0683
5.24702E-03	85.8998
5.24715E-03	85.735
5.24728E-03	85.5732
5.24741E-03	85.4506
5.24754E-03	85.3302
5.24773E-03	85.1533
5.24793E-03	84.9798
5.24813E-03	84.8093
5.24832E-03	84.6412
5.24856E-03	84.4336
5.24881E-03	84.2286
5.24905E-03	84.0256
5.24929E-03	83.8243
5.24962E-03	83.558
5.24988E-03	83.3466
5.24994E-03	83.3017
5.25027E-03	83.0788
5.25060E-03	82.8573
5.25092E-03	82.637
5.25141E-03	82.3085
5.25190E-03	81.982
5.25238E-03	81.6571
5.25287E-03	81.3334
5.25336E-03	81.0109
5.25385E-03	80.6894
5.25404E-03	80.5611
5.25449E-03	80.2943
5.25515E-03	79.9142
5.25580E-03	79.5352
5.25640E-03	79.1852
5.25723E-03	78.7039
5.25805E-03	78.2234
5.25888E-03	77.7437
5.25999E-03	77.1049
5.26080E-03	76.636
5.26109E-03	76.4843
5.26220E-03	75.912
5.26330E-03	75.3403
5.26496E-03	74.4836
5.26669E-03	73.5922
5.26768E-03	73.0786
5.26841E-03	72.7364
5.27014E-03	71.9284
5.27273E-03	70.7172
5.27456E-03	69.8592
5.27532E-03	69.5448
5.27791E-03	68.4656
5.28046E-03	67.4019
5.28384E-03	65.9943
5.28515E-03	65.447
5.28722E-03	64.6932
5.29060E-03	63.4599
5.29409E-03	62.186
5.29590E-03	61.5286
5.29950E-03	60.3679
5.30491E-03	58.6273
5.30671E-03	58.0472
5.31032E-03	57.0163
5.31572E-03	55.4702
5.31753E-03	54.9549
5.32113E-03	54.047
5.32834E-03	52.2314
5.33104E-03	51.5507
5.33555E-03	50.5419
5.34276E-03	48.928
5.34997E-03	47.4933
5.35718E-03	46.0588
5.36439E-03	44.7863
5.37160E-03	43.5139
5.37881E-03	42.3744
5.38602E-03	41.2351
5.39684E-03	39.6907
5.40044E-03	39.1759
5.40765E-03	38.2369
5.41486E-03	37.298
5.41847E-03	36.8736
5.42928E-03	35.6008
5.43649E-03	34.7523
5.44010E-03	34.369
5.45091E-03	33.2194
5.45812E-03	32.453
5.46172E-03	32.1009
5.47254E-03	31.0445
5.48268E-03	30.0543
5.48696E-03	29.6363
5.49147E-03	29.2123
5.50003E-03	28.4067
5.50859E-03	27.6013
5.51580E-03	26.9231
5.52301E-03	26.2452
5.52842E-03	25.7368
5.53022E-03	25.5674
5.53383E-03	25.2086
5.53923E-03	24.6706
5.54464E-03	24.1327
5.55005E-03	23.5504
5.55546E-03	22.9684
5.55906E-03	22.5805
5.56266E-03	22.1508
5.56627E-03	21.7212
5.56987E-03	21.2919
5.57348E-03	20.8197
5.57709E-03	20.3477
5.57979E-03	19.959
5.58249E-03	19.5704
5.58429E-03	19.3116
5.58520E-03	19.1669
5.58790E-03	18.733
5.59060E-03	18.2993
5.59150E-03	18.1549
5.59331E-03	17.8321
5.59598E-03	17.3533
5.59686E-03	17.1972
5.59860E-03	16.8501
5.60035E-03	16.5032
5.60209E-03	16.1566
5.60384E-03	15.7754
5.60559E-03	15.3946
5.60733E-03	14.9807
5.60908E-03	14.5673
5.61106E-03	14.0571
5.61237E-03	13.7174
5.61244E-03	13.7014
5.61369E-03	13.3471
5.61501E-03	12.9757
5.61579E-03	12.7554
5.61633E-03	12.5916
5.61765E-03	12.1888
5.61831E-03	11.9859
5.61896E-03	11.771
5.62016E-03	11.3771
5.62083E-03	11.1592
5.62125E-03	11.0116
5.62233E-03	10.6292
5.62341E-03	10.2474
5.62449E-03	9.83953
5.62521E-03	9.56813
5.62557E-03	9.42463
5.62665E-03	8.99499
5.62701E-03	8.85211
5.62774E-03	8.54827
5.62868E-03	8.1504
5.62927E-03	7.90479
5.62990E-03	7.62423
5.63071E-03	7.26453
5.63116E-03	7.06521
5.63152E-03	6.89753
5.63233E-03	6.52129
5.63314E-03	6.14622
5.63332E-03	6.06316
5.63395E-03	5.7602
5.63477E-03	5.37217
5.63571E-03	4.92158
5.63616E-03	4.70806
5.63634E-03	4.62263
5.63697E-03	4.32494
5.63760E-03	4.0287
5.63796E-03	3.86035
5.63823E-03	3.73903
5.63887E-03	3.45777
5.63909E-03	3.35805
5.63950E-03	3.18881
5.63990E-03	3.02116
5.64022E-03	2.89908
5.64044E-03	2.81286
5.64083E-03	2.67697
5.64098E-03	2.62173
5.64138E-03	2.4943
5.64143E-03	2.4789
5.64176E-03	2.38493
5.64204E-03	2.31458
5.64214E-03	2.28937
5.64240E-03	2.23497
5.64265E-03	2.18856
5.64291E-03	2.1508
5.64316E-03	2.1226
5.64328E-03	2.11371
5.64338E-03	2.10701
5.64365E-03	2.0995
5.64373E-03	2.10053
5.64382E-03	2.10223
5.64405E-03	2.11509
5.64418E-03	2.12935
5.64427E-03	2.13908
5.64445E-03	2.16724
5.64463E-03	2.20322
5.64479E-03	2.2443
5.64493E-03	2.2873
5.64508E-03	2.33646
5.64515E-03	2.36429
5.64522E-03	2.39281
5.64536E-03	2.45672
5.64551E-03	2.5279
5.64558E-03	2.56732
5.64565E-03	2.60745
5.64580E-03	2.69581
5.64595E-03	2.79909
5.64601E-03	2.84597
5.64611E-03	2.92089
5.64627E-03	3.05571
5.64644E-03	3.20356
5.64655E-03	3.32037
5.64660E-03	3.36588
5.64676E-03	3.54452
5.64691E-03	3.72811
5.64692E-03	3.73902
5.64709E-03	3.95211
5.64723E-03	4.15651
5.64727E-03	4.22583
5.64742E-03	4.44954
5.64761E-03	4.77099
5.64763E-03	4.82119
5.64780E-03	5.1248
5.64799E-03	5.5114
5.64800E-03	5.53149
5.64818E-03	5.93588
5.64834E-03	6.32985
5.64836E-03	6.37693
5.64850E-03	6.75608
5.64866E-03	7.21436
5.64872E-03	7.37842
5.64882E-03	7.70874
5.64899E-03	8.24053
5.64908E-03	8.55755
5.64915E-03	8.8128
5.64931E-03	9.42873
5.64944E-03	9.94241
5.64947E-03	10.0901
5.64964E-03	10.8024
5.64980E-03	11.5658
5.64996E-03	12.3887
5.65012E-03	13.2704
5.65016E-03	13.4804
5.65028E-03	14.2192
5.65045E-03	15.2367
5.65052E-03	15.7211
5.65061E-03	16.3299
5.65077E-03	17.5034
5.65088E-03	18.3464
5.65096E-03	18.9819
5.65115E-03	20.5878
5.65124E-03	21.4162
5.65134E-03	22.3314
5.65151E-03	24.0434
5.65153E-03	24.2242
5.65172E-03	26.2807
5.65178E-03	27.0228
5.65191E-03	28.5126
5.65205E-03	30.3557
5.65210E-03	30.9336
5.65229E-03	33.5603
5.65232E-03	34.1018
5.65247E-03	36.4101
5.65259E-03	38.3192
5.65266E-03	39.4977
5.65285E-03	42.8418
5.65286E-03	43.014
5.65304E-03	46.4654
5.65313E-03	48.3288
5.65323E-03	50.3844
5.65340E-03	54.2145
5.65342E-03	54.6188
5.65361E-03	59.1942
5.65367E-03	60.8363
5.65380E-03	64.1285
5.65394E-03	68.1751
5.65399E-03	69.443
5.65418E-03	75.1602
5.65421E-03	76.328
5.65437E-03	81.3018
5.65448E-03	85.3729
5.65456E-03	87.8843
5.65475E-03	94.9274
5.65484E-03	98.8607
5.65494E-03	102.445
5.65512E-03	110.452
5.65521E-03	114.128
5.65538E-03	121.905
5.65557E-03	131.162
5.65563E-03	134.253
5.65582E-03	144.103
5.65593E-03	150.057
5.65607E-03	158.006
5.65632E-03	172.75
5.65647E-03	181.62
5.65658E-03	188.276
5.65697E-03	214.051
5.65737E-03	241.155
5.65740E-03	243.614
5.65781E-03	271.905
5.65820E-03	299.199
5.65832E-03	307.646
5.65859E-03	325.6
5.65867E-03	330.374
5.65886E-03	342.122
5.65901E-03	351.604
5.65912E-03	357.678
5.65935E-03	370.793
5.65938E-03	372.102
5.65964E-03	384.691
5.65973E-03	389.014
5.65991E-03	396.267
5.65998E-03	399.158
5.66000E-03	399.758
5.66023E-03	407.525
5.66030E-03	409.35
5.66048E-03	413.84
5.66061E-03	416.085
5.66083E-03	419.826
5.66092E-03	420.546
5.66111E-03	421.917
5.66124E-03	422.118
5.66126E-03	422.056
5.66157E-03	420.435
5.66159E-03	420.124
5.66185E-03	416.749
5.66193E-03	415.126
5.66212E-03	411.175
5.66237E-03	404.473
5.66247E-03	401.864
5.66279E-03	391.169
5.66303E-03	382.14
5.66328E-03	372.409
5.66389E-03	345.808
5.66393E-03	344.246
5.66433E-03	326.444
5.66476E-03	307.062
5.66508E-03	292.556
5.66541E-03	278.935
5.66562E-03	269.873
5.66573E-03	265.675
5.66606E-03	253.11
5.66616E-03	248.929
5.66631E-03	243.856
5.66656E-03	234.993
5.66670E-03	229.937
5.66681E-03	226.526
5.66707E-03	218.582
5.66725E-03	212.917
5.66732E-03	210.894
5.66757E-03	203.826
5.66779E-03	197.778
5.66782E-03	196.881
5.66808E-03	190.617
5.66833E-03	184.364
5.66836E-03	183.57
5.66865E-03	177.236
5.66887E-03	172.493
5.66894E-03	171.088
5.66923E-03	165.479
5.66941E-03	161.979
5.66952E-03	160.11
5.66981E-03	155.133
5.66995E-03	152.649
5.67009E-03	150.431
5.67038E-03	146.003
5.67049E-03	144.345
5.67074E-03	140.88
5.67103E-03	136.928
5.67110E-03	136.04
5.67146E-03	131.609
5.67157E-03	130.281
5.67182E-03	127.488
5.67211E-03	124.301
5.67219E-03	123.591
5.67255E-03	120.047
5.67283E-03	117.216
5.67291E-03	116.593
5.67327E-03	113.479
5.67355E-03	110.993
5.67373E-03	109.693
5.67419E-03	106.209
5.67436E-03	104.896
5.67465E-03	102.991
5.67510E-03	99.9341
5.67516E-03	99.545
5.67556E-03	97.1861
5.67597E-03	94.817
5.67602E-03	94.5222
5.67648E-03	92.1195
5.67677E-03	90.6137
5.67694E-03	89.8265
5.67753E-03	87.1367
5.67784E-03	85.6904
5.67812E-03	84.5946
5.67868E-03	82.3146
5.67870E-03	82.2342
5.67929E-03	80.147
5.67987E-03	78.0621
5.67993E-03	77.8619
5.68046E-03	76.2309
5.68104E-03	74.4284
5.68118E-03	74.0129
5.68163E-03	72.8018
5.68235E-03	70.8663
5.68243E-03	70.6549
5.68307E-03	69.1376
5.68368E-03	67.7019
5.68379E-03	67.4663
5.68451E-03	65.9601
5.68496E-03	65.0197
5.68523E-03	64.5187
5.68596E-03	63.1839
5.68632E-03	62.5171
5.68668E-03	61.9336
5.68740E-03	60.7675
5.68812E-03	59.6025
5.68830E-03	59.3501
5.68920E-03	58.0893
5.68992E-03	57.0816
5.69010E-03	56.8612
5.69100E-03	55.7602
5.69172E-03	54.8801
5.69190E-03	54.6883
5.69281E-03	53.7299
5.69371E-03	52.7722
5.69389E-03	52.5808
5.69461E-03	51.9154
5.69567E-03	50.9388
5.69605E-03	50.5858
5.69673E-03	50.0395
5.69778E-03	49.1841
5.69821E-03	48.8386
5.69884E-03	48.3876
5.70038E-03	47.2932
5.70043E-03	47.2583
5.70202E-03	46.2746
5.70308E-03	45.6193
5.70369E-03	45.243
5.70457E-03	44.7804
5.70605E-03	43.998
5.70700E-03	43.5005
5.70754E-03	43.2552
5.70903E-03	42.5812
5.71031E-03	41.9994
5.71052E-03	41.9192
5.71200E-03	41.3317
5.71349E-03	40.7445
5.71362E-03	40.6912
5.71498E-03	40.2246
5.71667E-03	39.6416
5.71734E-03	39.4085
5.71836E-03	39.1108
5.72005E-03	38.615
5.72258E-03	37.8716
5.72292E-03	37.7726
5.72512E-03	37.2324
5.72765E-03	36.6096
5.72850E-03	36.402
5.73030E-03	36.0321
5.73300E-03	35.4775
5.73571E-03	34.9232
5.73841E-03	34.461
5.74111E-03	33.9991
5.74291E-03	33.6912
5.74382E-03	33.5605
5.74652E-03	33.1686
5.75012E-03	32.6461
5.75373E-03	32.2078
5.75734E-03	31.7696
5.76094E-03	31.3316
5.76454E-03	30.9689
5.76815E-03	30.6062
5.77175E-03	30.2437
5.77536E-03	29.9362
5.78077E-03	29.4752
5.78257E-03	29.3215
5.78617E-03	29.0558
5.79158E-03	28.6572
5.79339E-03	28.5244
5.79699E-03	28.2977
5.80285E-03	27.9295
5.80961E-03	27.5046
5.81637E-03	27.1454
5.82223E-03	26.8341
5.82583E-03	26.6426
5.82943E-03	26.4802
5.83665E-03	26.1553
5.84385E-03	25.8305
5.84746E-03	25.6681
5.85106E-03	25.5303
5.85828E-03	25.2547
5.86548E-03	24.9791
5.86909E-03	24.8413
5.87630E-03	24.6071
5.88712E-03	24.2558
5.89793E-03	23.9046
5.90875E-03	23.6106
5.91956E-03	23.3166
5.93037E-03	23.0226
5.93398E-03	22.9246
5.94119E-03	22.759
5.95200E-03	22.5107
5.96282E-03	22.2623
5.97003E-03	22.0968
5.97364E-03	22.0262
5.98445E-03	21.8143
5.99166E-03	21.673
5.99887E-03	21.5318
6.00608E-03	21.3906
6.01329E-03	21.2495
6.01509E-03	21.2196
6.02050E-03	21.13
6.02591E-03	21.0403
6.03131E-03	20.9508
6.03672E-03	20.8612
6.04033E-03	20.8016
6.04393E-03	20.742
6.04754E-03	20.6824
6.05114E-03	20.6229
6.05385E-03	20.5783
6.05655E-03	20.5337
6.05925E-03	20.4892
6.06196E-03	20.4447
6.06376E-03	20.4151
6.06464E-03	20.4033
6.06728E-03	20.3679
6.06904E-03	20.3444
6.07080E-03	20.3209
6.07256E-03	20.2974
6.07432E-03	20.274
6.07609E-03	20.2507
6.07785E-03	20.2275
6.07913E-03	20.2107
6.08040E-03	20.194
6.08168E-03	20.1773
6.08296E-03	20.1607
6.08424E-03	20.1442
6.08552E-03	20.1278
6.08680E-03	20.1115
6.08808E-03	20.0953
6.08936E-03	20.0793
6.09022E-03	20.0687
6.09107E-03	20.0583
6.09193E-03	20.0479
6.09278E-03	20.0377
6.09364E-03	20.0276
6.09449E-03	20.0176
6.09524E-03	20.0091
6.09620E-03	19.9983
6.09663E-03	19.9937
6.09684E-03	19.993
6.09748E-03	19.9911
6.09813E-03	19.9893
6.09877E-03	19.9877
6.09941E-03	19.9864
6.10005E-03	19.9853
6.10080E-03	19.9844
6.10130E-03	19.9841
6.10180E-03	19.984
6.10229E-03	19.9841
6.10279E-03	19.9845
6.10329E-03	19.9853
6.10379E-03	19.9865
6.10424E-03	19.9878
6.10461E-03	19.9893
6.10463E-03	19.9897
6.10502E-03	19.9986
6.10541E-03	20.0079
6.10580E-03	20.0176
6.10620E-03	20.0278
6.10659E-03	20.0385
6.10698E-03	20.0498
6.10734E-03	20.0607
6.10766E-03	20.0711
6.10798E-03	20.0821
6.10830E-03	20.0938
6.10860E-03	20.1055
6.10862E-03	20.1069
6.10894E-03	20.1322
6.10926E-03	20.1585
6.10958E-03	20.186
6.10986E-03	20.2117
6.11011E-03	20.2353
6.11036E-03	20.26
6.11061E-03	20.2862
6.11067E-03	20.2922
6.11086E-03	20.3284
6.11105E-03	20.3642
6.11124E-03	20.4014
6.11142E-03	20.4402
6.11161E-03	20.4809
6.11178E-03	20.5208
6.11193E-03	20.5563
6.11195E-03	20.5609
6.11208E-03	20.6128
6.11222E-03	20.6742
6.11237E-03	20.7383
6.11252E-03	20.8056
6.11262E-03	20.8525
6.11271E-03	20.9013
6.11277E-03	20.929
6.11281E-03	20.9625
6.11291E-03	21.0384
6.11301E-03	21.117
6.11311E-03	21.1984
6.11320E-03	21.2831
6.11330E-03	21.3713
6.11338E-03	21.4688
6.11346E-03	21.5693
6.11354E-03	21.6729
6.11362E-03	21.7799
6.11366E-03	21.8292
6.11370E-03	21.9061
6.11378E-03	22.0485
6.11386E-03	22.1953
6.11394E-03	22.3469
6.11402E-03	22.4862
6.11410E-03	22.7029
6.11418E-03	22.9045
6.11426E-03	23.1125
6.11428E-03	23.1603
6.11434E-03	23.3566
6.11442E-03	23.6164
6.11450E-03	23.8841
6.11455E-03	24.0376
6.11458E-03	24.1812
6.11468E-03	24.5982
6.11479E-03	25.0304
6.11482E-03	25.1701
6.11489E-03	25.5198
6.11499E-03	26.0453
6.11509E-03	26.6396
6.11517E-03	27.1765
6.11519E-03	27.2673
6.11529E-03	27.9698
6.11535E-03	28.4373
6.11539E-03	28.7225
6.11549E-03	29.5491
6.11557E-03	30.2724
6.11559E-03	30.4147
6.11565E-03	31.0568
6.11576E-03	32.0925
6.11577E-03	32.201
6.11586E-03	33.2461
6.11597E-03	34.4222
6.11607E-03	35.7772
6.11616E-03	36.9599
6.11618E-03	37.1598
6.11628E-03	38.6707
6.11636E-03	39.8246
6.11639E-03	40.2412
6.11649E-03	41.9232
6.11654E-03	42.6142
6.11666E-03	44.7412
6.11669E-03	45.2459
6.11678E-03	47.0112
6.11688E-03	48.8874
6.11695E-03	50.2116
6.11707E-03	52.814
6.11711E-03	53.6155
6.11726E-03	57.0085
6.11729E-03	57.6573
6.11751E-03	62.6188
6.11755E-03	63.6287
6.11783E-03	70.5622
6.11827E-03	81.2234
6.11840E-03	84.4223
6.11855E-03	87.8136
6.11872E-03	91.4685
6.11878E-03	92.6638
6.11895E-03	95.9043
6.11897E-03	96.3579
6.11914E-03	99.1789
6.11918E-03	99.8113
6.11929E-03	101.378
6.11940E-03	102.686
6.11945E-03	103.292
6.11958E-03	104.5
6.11959E-03	104.584
6.11973E-03	105.455
6.11980E-03	105.82
6.11987E-03	106.028
6.12000E-03	106.259
6.12016E-03	105.994
6.12018E-03	105.926
6.12032E-03	105.204
6.12039E-03	104.78
6.12046E-03	104.205
6.12055E-03	103.345
6.12060E-03	102.689
6.12078E-03	100.538
6.12098E-03	97.2698
6.12100E-03	96.8832
6.12116E-03	93.8464
6.12123E-03	92.6055
6.12138E-03	89.4549
6.12153E-03	85.9236
6.12163E-03	83.7756
6.12191E-03	76.9617
6.12201E-03	74.5286
6.12243E-03	64.2402
6.12248E-03	63.0395
6.12266E-03	58.7364
6.12276E-03	56.4674
6.12288E-03	53.9911
6.12302E-03	50.987
6.12305E-03	50.3961
6.12318E-03	47.8741
6.12325E-03	46.5529
6.12331E-03	45.4718
6.12346E-03	42.7343
6.12347E-03	42.5347
6.12356E-03	41.0485
6.12364E-03	39.8125
6.12367E-03	39.4327
6.12377E-03	37.9216
6.12381E-03	37.3363
6.12387E-03	36.5078
6.12398E-03	35.1694
6.12403E-03	34.4775
6.12408E-03	33.917
6.12419E-03	32.6382
6.12425E-03	32.0064
6.12429E-03	31.6535
6.12438E-03	30.752
6.12447E-03	29.895
6.12448E-03	29.8761
6.12457E-03	29.1068
6.12466E-03	28.3592
6.12469E-03	28.1169
6.12476E-03	27.6833
6.12485E-03	27.0523
6.12491E-03	26.6295
6.12494E-03	26.462
6.12504E-03	25.9382
6.12513E-03	25.4309
6.12517E-03	25.243
6.12521E-03	25.0397
6.12529E-03	24.6843
6.12537E-03	24.339
6.12543E-03	24.0777
6.12545E-03	24.0137
6.12553E-03	23.7343
6.12561E-03	23.4632
6.12569E-03	23.1998
6.12570E-03	23.1714
6.12577E-03	22.9776
6.12585E-03	22.7663
6.12593E-03	22.5612
6.12597E-03	22.4727
6.12601E-03	22.3786
6.12609E-03	22.2146
6.12617E-03	22.0556
6.12623E-03	21.9356
6.12625E-03	21.9072
6.12633E-03	21.7839
6.12641E-03	21.6645
6.12651E-03	21.5234
6.12661E-03	21.3872
6.12671E-03	21.2829
6.12680E-03	21.1826
6.12690E-03	21.0858
6.12700E-03	20.9923
6.12710E-03	20.9234
6.12720E-03	20.8571
6.12729E-03	20.793
6.12739E-03	20.7311
6.12754E-03	20.6416
6.12759E-03	20.6129
6.12769E-03	20.5717
6.12783E-03	20.5128
6.12798E-03	20.4564
6.12810E-03	20.4104
6.12829E-03	20.3438
6.12834E-03	20.3285
6.12848E-03	20.2938
6.12867E-03	20.2504
6.12885E-03	20.2087
6.12904E-03	20.1685
6.12923E-03	20.1295
6.12940E-03	20.0936
6.12948E-03	20.0832
6.12973E-03	20.0482
6.12997E-03	20.0146
6.13022E-03	19.9833
6.13046E-03	19.9529
6.13078E-03	19.9136
6.13083E-03	19.9072
6.13110E-03	19.885
6.13142E-03	19.8593
6.13174E-03	19.8345
6.13206E-03	19.8105
6.13238E-03	19.7872
6.13272E-03	19.7632
6.13307E-03	19.7386
6.13343E-03	19.7146
6.13368E-03	19.6981
6.13379E-03	19.6937
6.13414E-03	19.6793
6.13450E-03	19.6653
6.13503E-03	19.6449
6.13539E-03	19.6317
6.13589E-03	19.6138
6.13639E-03	19.5962
6.13689E-03	19.5791
6.13739E-03	19.5624
6.13788E-03	19.5459
6.13838E-03	19.5298
6.13888E-03	19.5138
6.13938E-03	19.4981
6.14002E-03	19.4783
6.14052E-03	19.463
6.14066E-03	19.4603
6.14130E-03	19.4482
6.14194E-03	19.4363
6.14259E-03	19.4247
6.14323E-03	19.4132
6.14387E-03	19.4018
6.14451E-03	19.3906
6.14544E-03	19.3747
6.14636E-03	19.3589
6.14729E-03	19.3434
6.14821E-03	19.328
6.14914E-03	19.3127
6.15007E-03	19.2976
6.15099E-03	19.2826
6.15192E-03	19.2677
6.15320E-03	19.2472
6.15449E-03	19.2268
6.15577E-03	19.2066
6.15705E-03	19.1865
6.15833E-03	19.1664
6.15962E-03	19.1464
6.15990E-03	19.142
6.16090E-03	19.1302
6.16264E-03	19.1096
6.16403E-03	19.0932
6.16589E-03	19.0715
6.16774E-03	19.0499
6.16959E-03	19.0283
6.17144E-03	19.0068
6.17329E-03	18.9853
6.17515E-03	18.9639
6.17700E-03	18.9425
6.17978E-03	18.9105
6.18256E-03	18.8786
6.18534E-03	18.8467
6.18812E-03	18.8149
6.19089E-03	18.7831
6.19364E-03	18.7517
6.19727E-03	18.7102
6.20090E-03	18.6687
6.20454E-03	18.6272
6.20839E-03	18.5834
6.21245E-03	18.5371
6.21651E-03	18.4909
6.22260E-03	18.4216
6.22931E-03	18.3578
6.23602E-03	18.2941
6.24293E-03	18.2286
6.25025E-03	18.1592
6.25755E-03	18.0899
6.26905E-03	17.9809
6.27812E-03	17.8951
6.28718E-03	17.8092
6.29624E-03	17.7234
6.30764E-03	17.6154
6.31904E-03	17.5246
6.33614E-03	17.3885
6.35193E-03	17.2628
6.36202E-03	17.1825
6.38220E-03	17.022
6.40215E-03	16.8632
6.42210E-03	16.7291
6.45202E-03	16.5278
6.47625E-03	16.3649
6.49050E-03	16.2691
6.50475E-03	16.1733
6.51900E-03	16.0918
6.54750E-03	15.9288
6.57600E-03	15.7659
6.61875E-03	15.5214
6.66150E-03	15.3122
6.69000E-03	15.1727
6.73539E-03	14.9505
6.78079E-03	14.7601
6.82618E-03	14.5696
6.87157E-03	14.3792
6.91697E-03	14.2172
6.96236E-03	14.0553
7.00775E-03	13.8933
7.03045E-03	13.8123
7.05315E-03	13.7435
7.10650E-03	13.5819
7.15986E-03	13.4202
7.21322E-03	13.2586
7.26657E-03	13.1224
7.31993E-03	12.9863
7.37329E-03	12.8502
7.42664E-03	12.714
7.48000E-03	12.6
7.54700E-03	12.4568
7.59725E-03	12.3494
7.64750E-03	12.242
7.68100E-03	12.1704
7.71450E-03	12.1105
7.74297E-03	12.0596
7.77145E-03	12.0087
7.79490E-03	11.9668
7.81835E-03	11.9249
7.84180E-03	11.883
7.85959E-03	11.8512
7.87738E-03	11.8194
7.88924E-03	11.7982
7.90264E-03	11.7743
7.91604E-03	11.7504
7.93111E-03	11.7234
7.94047E-03	11.7067
7.95349E-03	11.6835
7.96148E-03	11.6693
7.96947E-03	11.655
7.97746E-03	11.6431
7.98545E-03	11.6312
7.99261E-03	11.6205
7.99977E-03	11.6099
8.00681E-03	11.5994
8.01362E-03	11.5893
8.01816E-03	11.5826
8.02270E-03	11.5758
8.02689E-03	11.5696
8.03107E-03	11.5634
8.03526E-03	11.5573
8.03945E-03	11.5511
8.04385E-03	11.5446
8.04714E-03	11.5398
8.05044E-03	11.5349
8.05374E-03	11.5301
8.05704E-03	11.5253
8.06034E-03	11.5205
8.06363E-03	11.5157
8.06693E-03	11.511
8.07023E-03	11.5062
8.07353E-03	11.5015
8.07649E-03	11.4973
8.07928E-03	11.4934
8.08208E-03	11.4894
8.08394E-03	11.4869
8.08581E-03	11.4843
8.08767E-03	11.4817
8.08953E-03	11.4792
8.09183E-03	11.4761
8.09335E-03	11.4741
8.09488E-03	11.4721
8.09641E-03	11.4701
8.09794E-03	11.4682
8.09947E-03	11.4663
8.10100E-03	11.4644
8.10237E-03	11.4627
8.10419E-03	11.4606
8.10540E-03	11.4592
8.10662E-03	11.4579
8.10779E-03	11.4566
8.10783E-03	11.4566
8.10905E-03	11.4566
8.11026E-03	11.4566
8.11148E-03	11.4567
8.11292E-03	11.457
8.11388E-03	11.4572
8.11485E-03	11.4574
8.11581E-03	11.4577
8.11677E-03	11.4581
8.11717E-03	11.4583
8.11774E-03	11.4599
8.11870E-03	11.4628
8.11956E-03	11.4655
8.12069E-03	11.4691
8.12144E-03	11.4716
8.12219E-03	11.4742
8.12295E-03	11.4769
8.12370E-03	11.4798
8.12446E-03	11.4827
8.12521E-03	11.4858
8.12609E-03	11.4896
8.12697E-03	11.4936
8.12756E-03	11.4965
8.12814E-03	11.4995
8.12873E-03	11.5027
8.12923E-03	11.5056
8.12931E-03	11.5069
8.12990E-03	11.5163
8.13040E-03	11.5245
8.13091E-03	11.5329
8.13141E-03	11.5416
8.13191E-03	11.5504
8.13241E-03	11.5596
8.13292E-03	11.5691
8.13342E-03	11.5789
8.13392E-03	11.5891
8.13430E-03	11.5971
8.13467E-03	11.6053
8.13505E-03	11.6139
8.13543E-03	11.6228
8.13560E-03	11.627
8.13580E-03	11.6366
8.13618E-03	11.6545
8.13656E-03	11.6728
8.13693E-03	11.6918
8.13727E-03	11.7092
8.13761E-03	11.7273
8.13794E-03	11.7461
8.13811E-03	11.7559
8.13827E-03	11.7713
8.13861E-03	11.8031
8.13886E-03	11.8277
8.13911E-03	11.853
8.13936E-03	11.8793
8.13961E-03	11.9066
8.13978E-03	11.9257
8.13987E-03	11.9403
8.14005E-03	11.9741
8.14024E-03	12.0089
8.14043E-03	12.0449
8.14062E-03	12.0823
8.14081E-03	12.1214
8.14085E-03	12.1305
8.14100E-03	12.1765
8.14112E-03	12.2172
8.14125E-03	12.2591
8.14137E-03	12.3022
8.14150E-03	12.3469
8.14154E-03	12.3624
8.14162E-03	12.4036
8.14178E-03	12.4836
8.14189E-03	12.5389
8.14199E-03	12.5958
8.14200E-03	12.6017
8.14210E-03	12.6701
8.14220E-03	12.7482
8.14231E-03	12.8285
8.14241E-03	12.9114
8.14246E-03	12.9542
8.14252E-03	13.0076
8.14262E-03	13.1174
8.14272E-03	13.2306
8.14278E-03	13.289
8.14283E-03	13.3593
8.14293E-03	13.5038
8.14304E-03	13.6527
8.14309E-03	13.7296
8.14314E-03	13.8218
8.14325E-03	14.0116
8.14334E-03	14.1873
8.14340E-03	14.3075
8.14343E-03	14.354
8.14351E-03	14.5441
8.14359E-03	14.7387
8.14361E-03	14.7885
8.14368E-03	14.9564
8.14376E-03	15.1853
8.14382E-03	15.3611
8.14384E-03	15.4267
8.14393E-03	15.6951
8.14401E-03	15.9695
8.14403E-03	16.0397
8.14410E-03	16.2735
8.14418E-03	16.592
8.14422E-03	16.7649
8.14426E-03	16.9323
8.14439E-03	17.482
8.14440E-03	17.5175
8.14451E-03	18.0963
8.14457E-03	18.3748
8.14464E-03	18.7633
8.14473E-03	19.2949
8.14474E-03	19.3402
8.14483E-03	19.8789
8.14492E-03	20.431
8.14495E-03	20.7018
8.14508E-03	21.5915
8.14509E-03	21.6487
8.14521E-03	22.569
8.14526E-03	23.0095
8.14533E-03	23.616
8.14543E-03	24.5132
8.14546E-03	24.7361
8.14558E-03	25.9519
8.14565E-03	26.6455
8.14570E-03	27.1463
8.14585E-03	28.8035
8.14586E-03	28.9309
8.14603E-03	30.8724
8.14605E-03	31.1782
8.14619E-03	32.9595
8.14625E-03	33.7663
8.14635E-03	35.1815
8.14645E-03	36.5577
8.14652E-03	37.5347
8.14667E-03	39.8071
8.14668E-03	40.0709
8.14692E-03	43.8339
8.14693E-03	44.1141
8.14725E-03	49.5376
8.14806E-03	63.8111
8.14807E-03	64.0541
8.14833E-03	68.3796
8.14838E-03	69.1045
8.14864E-03	73.0418
8.14865E-03	73.1651
8.14882E-03	75.5611
8.14885E-03	75.8926
8.14903E-03	78.0335
8.14909E-03	78.7145
8.14920E-03	79.747
8.14933E-03	80.9531
8.14940E-03	81.4517
8.14952E-03	82.2659
8.14957E-03	82.5371
8.14973E-03	83.2466
8.14976E-03	83.3596
8.14990E-03	83.611
8.15000E-03	83.7301
8.15021E-03	83.4656
8.15038E-03	82.8293
8.15046E-03	82.4666
8.15054E-03	81.9666
8.15064E-03	81.2325
8.15071E-03	80.6677
8.15088E-03	79.0841
8.15091E-03	78.795
8.15115E-03	76.0237
8.15137E-03	73.0793
8.15140E-03	72.5884
8.15162E-03	69.3548
8.15191E-03	64.4407
8.15201E-03	62.7684
8.15236E-03	56.5656
8.15278E-03	49.1683
8.15285E-03	48.0007
8.15308E-03	44.0616
8.15318E-03	42.4015
8.15328E-03	40.8037
8.15335E-03	39.7573
8.15348E-03	37.748
8.15360E-03	36.0217
8.15364E-03	35.5526
8.15379E-03	33.4795
8.15395E-03	31.4086
8.15398E-03	31.0134
8.15407E-03	29.9414
8.15417E-03	28.7907
8.15419E-03	28.537
8.15431E-03	27.2253
8.15435E-03	26.7599
8.15443E-03	25.9883
8.15452E-03	25.1107
8.15455E-03	24.8226
8.15468E-03	23.7339
8.15469E-03	23.6055
8.15480E-03	22.7291
8.15486E-03	22.243
8.15493E-03	21.6953
8.15502E-03	21.0088
8.15504E-03	20.9022
8.15515E-03	20.1741
8.15519E-03	19.9032
8.15526E-03	19.4949
8.15536E-03	18.9129
8.15537E-03	18.8562
8.15548E-03	18.2762
8.15553E-03	18.0339
8.15559E-03	17.7361
8.15570E-03	17.2528
8.15581E-03	16.7812
8.15590E-03	16.4063
8.15592E-03	16.3502
8.15603E-03	15.9689
8.15611E-03	15.6858
8.15612E-03	15.6542
8.15622E-03	15.3766
8.15631E-03	15.1058
8.15632E-03	15.0764
8.15641E-03	14.8673
8.15650E-03	14.638
8.15653E-03	14.5634
8.15659E-03	14.4346
8.15669E-03	14.2465
8.15678E-03	14.0633
8.15685E-03	13.9441
8.15688E-03	13.8943
8.15697E-03	13.7492
8.15707E-03	13.6079
8.15716E-03	13.4701
8.15726E-03	13.3551
8.15735E-03	13.2431
8.15737E-03	13.2189
8.15744E-03	13.1477
8.15754E-03	13.0588
8.15765E-03	12.9534
8.15777E-03	12.8511
8.15779E-03	12.833
8.15788E-03	12.769
8.15800E-03	12.6933
8.15811E-03	12.6198
8.15821E-03	12.5615
8.15823E-03	12.5515
8.15834E-03	12.4988
8.15846E-03	12.4478
8.15857E-03	12.3982
8.15875E-03	12.3262
8.15884E-03	12.2904
8.15892E-03	12.2655
8.15909E-03	12.2161
8.15926E-03	12.1685
8.15945E-03	12.1183
8.15946E-03	12.1156
8.15967E-03	12.0774
8.15989E-03	12.0391
8.16011E-03	12.0022
8.16033E-03	11.9664
8.16055E-03	11.9317
8.16072E-03	11.906
8.16077E-03	11.9005
8.16099E-03	11.8784
8.16128E-03	11.8499
8.16158E-03	11.8223
8.16189E-03	11.7937
8.16223E-03	11.7641
8.16240E-03	11.7497
8.16256E-03	11.7404
8.16290E-03	11.7226
8.16323E-03	11.7054
8.16357E-03	11.6887
8.16390E-03	11.6725
8.16424E-03	11.6566
8.16461E-03	11.6393
8.16503E-03	11.6204
8.16545E-03	11.602
8.16575E-03	11.5894
8.16587E-03	11.5861
8.16629E-03	11.5757
8.16671E-03	11.5656
8.16713E-03	11.5557
8.16775E-03	11.5414
8.16830E-03	11.5293
8.16884E-03	11.5176
8.16939E-03	11.5061
8.16993E-03	11.4949
8.17010E-03	11.4915
8.17048E-03	11.4873
8.17102E-03	11.4814
8.17157E-03	11.4756
8.17211E-03	11.47
8.17278E-03	11.4633
8.17345E-03	11.4568
8.17412E-03	11.4505
8.17479E-03	11.4443
8.17546E-03	11.4382
8.17613E-03	11.4322
8.17714E-03	11.4234
8.17789E-03	11.417
8.17873E-03	11.4099
8.17956E-03	11.403
8.18015E-03	11.3982
8.18040E-03	11.3973
8.18124E-03	11.3943
8.18208E-03	11.3914
8.18333E-03	11.3871
8.18417E-03	11.3844
8.18526E-03	11.3809
8.18635E-03	11.3775
8.18744E-03	11.3741
8.18853E-03	11.3708
8.18961E-03	11.3676
8.19070E-03	11.3644
8.19179E-03	11.3612
8.19288E-03	11.3581
8.19420E-03	11.3544
8.19552E-03	11.3507
8.19684E-03	11.3471
8.19816E-03	11.3435
8.19948E-03	11.3399
8.20145E-03	11.3346
8.20343E-03	11.3294
8.20496E-03	11.3254
8.20649E-03	11.3214
8.20878E-03	11.3155
8.21108E-03	11.3096
8.21337E-03	11.3037
8.21566E-03	11.2979
8.21801E-03	11.2919
8.21834E-03	11.2911
8.22035E-03	11.2881
8.22270E-03	11.2847
8.22504E-03	11.2812
8.22738E-03	11.2778
8.22973E-03	11.2744
8.23207E-03	11.271
8.23549E-03	11.2661
8.23869E-03	11.2615
8.24189E-03	11.257
8.24510E-03	11.2524
8.24830E-03	11.2478
8.25150E-03	11.2433
8.25508E-03	11.2383
8.25867E-03	11.2332
8.26105E-03	11.2298
8.26583E-03	11.2231
8.27060E-03	11.2164
8.27490E-03	11.2104
8.27921E-03	11.2044
8.28351E-03	11.1984
8.28782E-03	11.1924
8.29259E-03	11.1857
8.29737E-03	11.179
8.30453E-03	11.1691
8.31149E-03	11.1594
8.31835E-03	11.1498
8.32521E-03	11.1403
8.33319E-03	11.1292
8.34118E-03	11.1181
8.35085E-03	11.1047
8.35953E-03	11.0927
8.36889E-03	11.0797
8.37894E-03	11.0658
8.39066E-03	11.0495
8.39736E-03	11.0402
8.41076E-03	11.0217
8.42262E-03	11.0053
8.43448E-03	10.9888
8.45227E-03	10.9642
8.46993E-03	10.9398
8.48165E-03	10.9235
8.49338E-03	10.9073
8.50510E-03	10.8936
8.52855E-03	10.8663
8.56038E-03	10.8292
8.58550E-03	10.8
8.61900E-03	10.7609
8.65250E-03	10.7219
8.68600E-03	10.6829
8.73625E-03	10.6244
8.78650E-03	10.5658
8.82000E-03	10.5268
8.89375E-03	10.4409
8.96750E-03	10.3675
9.04125E-03	10.2941
9.11500E-03	10.2207
9.22562E-03	10.1106
9.33625E-03	10.0005
9.41000E-03	9.92709
9.44688E-03	9.89465
9.55750E-03	9.79733
9.69234E-03	9.67871
9.85250E-03	9.53782
9.92625E-03	9.47294
1.00000E-02	9.41145
1.01411E-02	12.8803
1.02842E-02	12.8341
1.04292E-02	12.7871
1.05764E-02	12.7396
1.06250E-02	12.7238
1.07749E-02	12.6794
1.09269E-02	12.6344
1.10811E-02	12.5887
1.12374E-02	12.5424
1.12500E-02	12.5387
1.14087E-02	12.4954
1.15697E-02	12.4515
1.17329E-02	12.407
1.18750E-02	12.3682
1.20425E-02	12.326
1.22124E-02	12.2832
1.23847E-02	12.2397
1.25000E-02	12.2106
1.26764E-02	12.1693
1.28552E-02	12.1275
1.30366E-02	12.085
1.31250E-02	12.0643
1.33102E-02	12.0239
1.34980E-02	11.9829
1.36884E-02	11.9414
1.37500E-02	11.928
1.39440E-02	11.8884
1.41407E-02	11.8483
1.43402E-02	11.8076
1.43750E-02	11.8005
1.45778E-02	11.7617
1.47835E-02	11.7224
1.49920E-02	11.6825
1.50000E-02	11.681
1.52116E-02	11.644
1.54262E-02	11.6065
1.56439E-02	11.5685
1.58646E-02	11.53
1.60884E-02	11.4909
1.62500E-02	11.4627
1.64793E-02	11.4269
1.67118E-02	11.3907
1.69475E-02	11.3539
1.71866E-02	11.3166
1.74291E-02	11.2788
1.75000E-02	11.2678
1.77469E-02	11.2331
1.79973E-02	11.198
1.82512E-02	11.1624
1.85087E-02	11.1263
1.87500E-02	11.0924
1.90145E-02	11.0587
1.92828E-02	11.0246
1.95548E-02	10.99
1.98307E-02	10.9549
2.00000E-02	10.9334
2.02822E-02	10.9006
2.05683E-02	10.8674
2.08585E-02	10.8337
2.11528E-02	10.7995
2.12500E-02	10.7882
2.15498E-02	10.7563
2.18538E-02	10.7239
2.21621E-02	10.6911
2.24748E-02	10.6578
2.25000E-02	10.6551
2.28174E-02	10.6239
2.31393E-02	10.5923
2.34658E-02	10.5602
2.37500E-02	10.5323
2.40851E-02	10.5018
2.44249E-02	10.4708
2.47695E-02	10.4395
2.50000E-02	10.4185
2.53527E-02	10.3886
2.57104E-02	10.3584
2.60731E-02	10.3277
2.62500E-02	10.3127
2.66203E-02	10.2834
2.69959E-02	10.2537
2.73768E-02	10.2236
2.75000E-02	10.2139
2.78880E-02	10.1852
2.82814E-02	10.1561
2.86804E-02	10.1265
2.87500E-02	10.1214
2.91556E-02	10.0932
2.95669E-02	10.0646
2.99841E-02	10.0356
3.00000E-02	10.0345
3.04232E-02	10.0067
3.08525E-02	9.97861
3.12500E-02	9.95257
3.16909E-02	9.92528
3.21380E-02	9.89761
3.25000E-02	9.87521
3.29585E-02	9.84903
3.34235E-02	9.82248
3.38950E-02	9.79556
3.43732E-02	9.76826
3.48582E-02	9.74057
3.50000E-02	9.73247
3.54938E-02	9.70699
3.59945E-02	9.68115
3.65024E-02	9.65494
3.70173E-02	9.62836
3.75000E-02	9.60345
3.80291E-02	9.57859
3.85656E-02	9.55337
3.91097E-02	9.5278
3.96614E-02	9.50187
4.00000E-02	9.48596
4.05643E-02	9.46165
4.11366E-02	9.437
4.17170E-02	9.412
4.23055E-02	9.38665
4.25000E-02	9.37827
4.30996E-02	9.35447
4.37077E-02	9.33033
4.43243E-02	9.30584
4.49496E-02	9.28102
4.50000E-02	9.27902
4.56349E-02	9.25567
4.62787E-02	9.23199
4.69316E-02	9.20797
4.75000E-02	9.18707
4.81701E-02	9.16413
4.88497E-02	9.14087
4.95389E-02	9.11729
5.00000E-02	9.10151
5.07054E-02	9.07895
5.14208E-02	9.05608
5.21462E-02	9.03289
5.25000E-02	9.02158
5.32407E-02	8.99937
5.39918E-02	8.97685
5.47535E-02	8.95401
5.50000E-02	8.94662
5.57759E-02	8.92473
5.65628E-02	8.90253
5.73608E-02	8.88002
5.75000E-02	8.87609
5.83112E-02	8.8545
5.91339E-02	8.83259
5.99682E-02	8.81038
6.00000E-02	8.80953
6.08465E-02	8.78875
6.17049E-02	8.76767
6.25755E-02	8.74629
6.34583E-02	8.72462
6.43536E-02	8.70263
6.50000E-02	8.68676
6.59170E-02	8.6664
6.68470E-02	8.64575
6.77901E-02	8.62481
6.87465E-02	8.60357
6.97164E-02	8.58204
7.00000E-02	8.57574
7.09876E-02	8.55575
7.19891E-02	8.53548
7.30047E-02	8.51492
7.40347E-02	8.49407
7.50000E-02	8.47452
7.60581E-02	8.45485
7.71312E-02	8.4349
7.82193E-02	8.41467
7.93229E-02	8.39415
8.00000E-02	8.38156
8.11287E-02	8.36216
8.22732E-02	8.34249
8.34340E-02	8.32254
8.46111E-02	8.30231
8.50000E-02	8.29563
8.61992E-02	8.27647
8.74153E-02	8.25705
8.86486E-02	8.23735
8.98993E-02	8.21738
9.00000E-02	8.21577
1.00000E-01	8.07126
1.14616E-01	8.05628
1.31581E-01	8.02347
1.50000E-01	7.98795
1.79965E-01	7.93072
2.00000E-01	7.87942
2.50000E-01	7.75182
2.58918E-01	7.72909
3.06318E-01	7.57907
3.67748E-01	7.32752
3.91415E-01	7.24927
4.45393E-01	7.07082
5.03527E-01	6.9016
5.07054E-01	6.89134
5.82127E-01	6.61013
6.65142E-01	6.34764
6.72982E-01	6.32464
6.74525E-01	6.32011
6.74608E-01	6.31949
6.78747E-01	6.30593
6.82886E-01	6.29246
6.87125E-01	6.27875
6.91696E-01	6.26406
6.95835E-01	6.25083
7.00000E-01	6.23759
7.16803E-01	6.18442
7.16999E-01	6.1838
7.31543E-01	6.13695
7.32880E-01	6.13257
7.48088E-01	6.0828
7.55292E-01	6.05878
7.58889E-01	6.04681
7.66229E-01	6.02693
7.70965E-01	6.01379
7.88581E-01	5.96497
7.95101E-01	5.94656
8.00000E-01	5.93273
8.05643E-01	5.9122
8.23907E-01	5.85976
8.60499E-01	5.75261
8.61113E-01	5.75107
9.00000E-01	5.65136
9.10432E-01	5.61944
9.48683E-01	5.52345
9.88856E-01	5.42067
1.00000E+00	5.39696
1.04279E+00	5.28941
1.10255E+00	5.1583
1.11810E+00	5.12347
1.19878E+00	4.96736
1.21569E+00	4.93415
1.24146E+00	4.89133
1.25000E+00	4.87714
1.26764E+00	4.84447
1.37354E+00	4.674
1.40988E+00	4.62243
1.46759E+00	4.53939
1.49777E+00	4.49943
1.50000E+00	4.50272
1.51305E+00	4.48583
1.52539E+00	4.46982
1.52621E+00	4.46875
1.54879E+00	4.43886
1.55983E+00	4.42417
1.56384E+00	4.41876
1.57874E+00	4.40271
1.58854E+00	4.39208
1.60425E+00	4.37473
1.60763E+00	4.37097
1.62113E+00	4.35626
1.64568E+00	4.32899
1.64726E+00	4.32722
1.65680E+00	4.31847
1.68389E+00	4.29295
1.69969E+00	4.27793
1.70063E+00	4.27704
1.72298E+00	4.25538
1.73644E+00	4.24099
1.74660E+00	4.23365
1.75000E+00	4.2312
1.76774E+00	4.21616
1.78341E+00	4.20278
1.81116E+00	4.17891
1.82204E+00	4.16945
1.84775E+00	4.14695
1.84825E+00	4.14659
1.85917E+00	4.13872
1.88540E+00	4.11942
1.89705E+00	4.11086
1.93738E+00	4.0792
1.96259E+00	4.0616
1.98494E+00	4.0458
2.00000E+00	4.03906
2.01791E+00	4.02722
2.03372E+00	4.01668
2.03598E+00	4.01515
2.05035E+00	4.00541
2.06167E+00	3.99903
2.07262E+00	3.99275
2.09118E+00	3.98196
2.09895E+00	3.9774
2.14787E+00	3.94807
2.19453E+00	3.92607
2.24220E+00	3.90308
2.26642E+00	3.89131
2.29091E+00	3.8791
2.30707E+00	3.87111
2.32323E+00	3.86313
2.34067E+00	3.85633
2.35712E+00	3.85069
2.37369E+00	3.84488
2.40718E+00	3.83062
2.41107E+00	3.82929
2.43950E+00	3.81951
2.44904E+00	3.81619
2.48276E+00	3.80473
2.52679E+00	3.78956
2.53639E+00	3.78601
2.54603E+00	3.78188
2.55428E+00	3.77871
2.57238E+00	3.77365
2.60346E+00	3.76482
2.63130E+00	3.75678
2.64126E+00	3.75389
2.66036E+00	3.74825
2.70564E+00	3.73881
2.75170E+00	3.72868
2.79480E+00	3.71816
2.79997E+00	3.71689
2.80932E+00	3.71534
2.82945E+00	3.71094
2.84972E+00	3.70648
2.85916E+00	3.7045
2.86116E+00	3.70408
2.86202E+00	3.70463
2.86288E+00	3.70507
2.86749E+00	3.70486
2.87210E+00	3.70461
2.88594E+00	3.7023
2.89985E+00	3.69996
2.91032E+00	3.69815
2.92083E+00	3.6963
2.92786E+00	3.69506
2.93667E+00	3.69361
2.94197E+00	3.69272
2.94727E+00	3.69182
2.95614E+00	3.69029
2.98470E+00	3.68527
2.99234E+00	3.68364
3.00000E+00	3.68216
3.01567E+00	3.68078
3.03143E+00	3.67938
3.03933E+00	3.67865
3.06318E+00	3.67641
3.07011E+00	3.67599
3.07705E+00	3.67555
3.09897E+00	3.67285
3.12104E+00	3.67012
3.13214E+00	3.66872
3.14306E+00	3.66734
3.16566E+00	3.66637
3.19047E+00	3.66424
3.21548E+00	3.66214
3.22766E+00	3.66101
3.23988E+00	3.65981
3.25357E+00	3.65861
3.26732E+00	3.65737
3.27652E+00	3.65676
3.27839E+00	3.65674
3.28950E+00	3.65646
3.30561E+00	3.65617
3.31370E+00	3.65598
3.32180E+00	3.65579
3.34008E+00	3.65583
3.34926E+00	3.65581
3.35846E+00	3.65578
3.37553E+00	3.6547
3.39269E+00	3.65389
3.41318E+00	3.65259
3.42348E+00	3.65202
3.43380E+00	3.65145
3.48225E+00	3.6522
3.49994E+00	3.65247
3.52730E+00	3.65282
3.55886E+00	3.65321
3.56735E+00	3.6533
3.58319E+00	3.65363
3.58494E+00	3.65366
3.61877E+00	3.65432
3.65621E+00	3.65578
3.65767E+00	3.65584
3.67092E+00	3.65634
3.69021E+00	3.65711
3.70610E+00	3.65775
3.71053E+00	3.65794
3.73929E+00	3.65909
3.74041E+00	3.65914
3.75056E+00	3.65953
3.77749E+00	3.66106
3.80754E+00	3.66308
3.83113E+00	3.66467
3.83193E+00	3.66473
3.85025E+00	3.66593
3.85119E+00	3.66599
3.85254E+00	3.66608
3.88715E+00	3.66822
3.91506E+00	3.67001
3.91632E+00	3.67011
3.92441E+00	3.67075
3.94290E+00	3.67222
3.94317E+00	3.67224
3.94977E+00	3.6728
4.00000E+00	3.67701
4.08479E+00	3.69159
4.11314E+00	3.69646
4.14216E+00	3.70092
4.16364E+00	3.70423
4.21476E+00	3.71239
4.22949E+00	3.71489
4.24523E+00	3.71778
4.26001E+00	3.7205
4.30574E+00	3.72786
4.31890E+00	3.73005
4.33719E+00	3.73319
4.34725E+00	3.73492
4.35715E+00	3.73662
4.36690E+00	3.7383
4.37649E+00	3.73994
4.38594E+00	3.74157
4.38695E+00	3.74174
4.39523E+00	3.74299
4.39868E+00	3.74351
4.40438E+00	3.74441
4.41020E+00	3.74534
4.41339E+00	3.74587
4.42226E+00	3.74734
4.43099E+00	3.74879
4.43958E+00	3.75021
4.44804E+00	3.75161
4.45637E+00	3.75299
4.46860E+00	3.75502
4.46970E+00	3.7552
4.47994E+00	3.75696
4.48057E+00	3.75707
4.49224E+00	3.75918
4.50366E+00	3.76124
4.51479E+00	3.76325
4.52569E+00	3.76522
4.53278E+00	3.7665
4.53630E+00	3.76706
4.54669E+00	3.7687
4.55078E+00	3.76935
4.55682E+00	3.77032
4.56673E+00	3.77193
4.57639E+00	3.77349
4.58584E+00	3.77502
4.59506E+00	3.77651
4.60408E+00	3.77797
4.60465E+00	3.77806
4.60996E+00	3.77898
4.62156E+00	3.78098
4.63279E+00	3.78292
4.64367E+00	3.78479
4.65231E+00	3.78628
4.65420E+00	3.78663
4.65915E+00	3.78753
4.66441E+00	3.7885
4.67431E+00	3.79034
4.68389E+00	3.79211
4.68825E+00	3.79292
4.69317E+00	3.79384
4.69441E+00	3.79407
4.70216E+00	3.79531
4.71087E+00	3.79671
4.71931E+00	3.79807
4.73145E+00	3.80002
4.74212E+00	3.80174
4.74308E+00	3.80189
4.75411E+00	3.80369
4.76469E+00	3.80541
4.77011E+00	3.80629
4.77362E+00	3.80687
4.77472E+00	3.80706
4.78433E+00	3.80869
4.79345E+00	3.81024
4.79825E+00	3.81106
4.80219E+00	3.81175
4.81336E+00	3.81373
4.82302E+00	3.81543
4.82383E+00	3.81558
4.83113E+00	3.81689
4.83365E+00	3.81735
4.84286E+00	3.81901
4.85149E+00	3.82057
4.86349E+00	3.82274
4.87427E+00	3.82469
4.88370E+00	3.82639
4.88416E+00	3.82648
4.89021E+00	3.82759
4.89599E+00	3.82865
4.90155E+00	3.82957
4.91147E+00	3.8312
4.91252E+00	3.83137
4.91756E+00	3.8322
4.92015E+00	3.83267
4.92337E+00	3.83325
4.93107E+00	3.83466
4.94021E+00	3.83633
4.94151E+00	3.83657
4.94878E+00	3.83791
4.95039E+00	3.83822
4.95516E+00	3.83912
4.96129E+00	3.84029
4.96575E+00	3.84114
4.97111E+00	3.84216
4.99046E+00	3.84586
5.00000E+00	3.84768
5.01562E+00	3.85127
5.03101E+00	3.85481
5.03527E+00	3.85579
5.04615E+00	3.85829
5.06105E+00	3.86171
5.07054E+00	3.86389
5.07572E+00	3.86522
5.09016E+00	3.86892
5.10438E+00	3.87256
5.11526E+00	3.87535
5.11837E+00	3.87614
5.13215E+00	3.87967
5.14571E+00	3.88315
5.15906E+00	3.88657
5.17866E+00	3.89159
5.19786E+00	3.89651
5.21657E+00	3.9013
5.21829E+00	3.90174
5.23318E+00	3.90562
5.23488E+00	3.90605
5.25272E+00	3.91051
5.26401E+00	3.91333
5.27019E+00	3.91488
5.28720E+00	3.91913
5.30387E+00	3.9233
5.32010E+00	3.92736
5.33599E+00	3.93134
5.35147E+00	3.93521
5.36663E+00	3.939
5.38140E+00	3.9427
5.39184E+00	3.94531
5.39586E+00	3.94631
5.40361E+00	3.94825
5.41459E+00	3.95104
5.41517E+00	3.95119
5.43289E+00	3.95582
5.45061E+00	3.96045
5.46778E+00	3.96493
5.48441E+00	3.96928
5.48503E+00	3.96944
5.50052E+00	3.97351
5.51613E+00	3.97762
5.53125E+00	3.9816
5.53784E+00	3.98333
5.54590E+00	3.98545
5.55580E+00	3.98805
5.56009E+00	3.98919
5.57384E+00	3.99282
5.58715E+00	3.99634
5.60349E+00	4.00066
5.60640E+00	4.00136
5.60948E+00	4.0021
5.62466E+00	4.00588
5.64216E+00	4.01023
5.65876E+00	4.01436
5.66367E+00	4.01558
5.67467E+00	4.01833
5.68976E+00	4.02211
5.69255E+00	4.02281
5.70423E+00	4.02573
5.72271E+00	4.03036
5.74004E+00	4.0347
5.74594E+00	4.03617
5.75629E+00	4.0388
5.77152E+00	4.04268
5.77363E+00	4.04322
5.77710E+00	4.0441
5.78580E+00	4.04634
5.80145E+00	4.05037
5.80547E+00	4.05141
5.82351E+00	4.05608
5.82941E+00	4.0576
5.83971E+00	4.06027
5.85457E+00	4.06413
5.86625E+00	4.06715
5.87275E+00	4.06884
5.88573E+00	4.0722
5.88866E+00	4.07297
5.90258E+00	4.07658
5.91409E+00	4.07958
5.92008E+00	4.08115
5.92476E+00	4.08239
5.93473E+00	4.08502
5.94259E+00	4.0871
5.94974E+00	4.08899
5.95105E+00	4.08934
5.96853E+00	4.09399
5.98427E+00	4.09817
6.00000E+00	4.10235
6.02332E+00	4.10876
6.04615E+00	4.11504
6.07572E+00	4.12318
6.08465E+00	4.12563
6.10461E+00	4.13053
6.11673E+00	4.1335
6.13259E+00	4.13739
6.15969E+00	4.14405
6.18595E+00	4.15049
6.21139E+00	4.15674
6.23574E+00	4.16271
6.23604E+00	4.16279
6.25000E+00	4.16629
6.25991E+00	4.16878
6.26679E+00	4.17051
6.28304E+00	4.17458
6.30544E+00	4.18021
6.32715E+00	4.18566
6.34817E+00	4.19094
6.37857E+00	4.19857
6.39521E+00	4.20274
6.40739E+00	4.2058
6.41860E+00	4.20862
6.43502E+00	4.21277
6.43750E+00	4.21339
6.46123E+00	4.21939
6.47266E+00	4.22228
6.47678E+00	4.22332
6.48074E+00	4.22433
6.48086E+00	4.22436
6.48492E+00	4.22533
6.48635E+00	4.22567
6.48855E+00	4.2262
6.48894E+00	4.2263
6.49294E+00	4.22727
6.49690E+00	4.22823
6.50083E+00	4.22919
6.50473E+00	4.23013
6.50860E+00	4.23107
6.51018E+00	4.23146
6.51244E+00	4.23201
6.51625E+00	4.23293
6.52002E+00	4.23385
6.52377E+00	4.23476
6.52749E+00	4.23567
6.53119E+00	4.23656
6.53302E+00	4.23701
6.53485E+00	4.23745
6.53848E+00	4.23834
6.54133E+00	4.23903
6.54209E+00	4.23921
6.54567E+00	4.24008
6.54922E+00	4.24095
6.55448E+00	4.24223
6.55970E+00	4.24349
6.56220E+00	4.2441
6.56485E+00	4.24474
6.56994E+00	4.24598
6.57496E+00	4.2472
6.57994E+00	4.24841
6.58485E+00	4.24961
6.58957E+00	4.25075
6.58971E+00	4.25079
6.59450E+00	4.25195
6.59925E+00	4.25311
6.60393E+00	4.25425
6.60857E+00	4.25537
6.61280E+00	4.2564
6.61314E+00	4.25648
6.61522E+00	4.25699
6.61767E+00	4.25759
6.62214E+00	4.25868
6.62656E+00	4.25977
6.63093E+00	4.26083
6.63525E+00	4.26189
6.63927E+00	4.26287
6.63951E+00	4.26293
6.64373E+00	4.26396
6.64789E+00	4.26498
6.65201E+00	4.26599
6.65608E+00	4.26698
6.66011E+00	4.26797
6.66181E+00	4.26839
6.66408E+00	4.26894
6.66677E+00	4.2696
6.66801E+00	4.2699
6.67189E+00	4.27086
6.67573E+00	4.27181
6.67826E+00	4.27243
6.68329E+00	4.27367
6.68824E+00	4.27489
6.69286E+00	4.27603
6.69311E+00	4.27609
6.69550E+00	4.27668
6.69791E+00	4.27728
6.70263E+00	4.27844
6.70727E+00	4.27959
6.71185E+00	4.28072
6.71635E+00	4.28183
6.72078E+00	4.28292
6.72134E+00	4.28306
6.72514E+00	4.284
6.72944E+00	4.28506
6.73367E+00	4.2861
6.73783E+00	4.28713
6.74192E+00	4.28814
6.74596E+00	4.28913
6.74692E+00	4.28937
6.74856E+00	4.28977
6.74993E+00	4.29011
6.75383E+00	4.29108
6.75768E+00	4.29204
6.76147E+00	4.29297
6.76519E+00	4.2939
6.76886E+00	4.29481
6.77039E+00	4.29519
6.77247E+00	4.2957
6.77603E+00	4.29659
6.78125E+00	4.29788
6.78636E+00	4.29915
6.79135E+00	4.30038
6.79622E+00	4.30159
6.79909E+00	4.30231
6.80097E+00	4.30277
6.80270E+00	4.3032
6.80563E+00	4.30393
6.81016E+00	4.30505
6.81460E+00	4.30615
6.81892E+00	4.30722
6.82315E+00	4.30827
6.82421E+00	4.30853
6.82727E+00	4.30929
6.83131E+00	4.3103
6.83136E+00	4.31031
6.83525E+00	4.31128
6.83910E+00	4.31224
6.84413E+00	4.3135
6.84618E+00	4.31401
6.84900E+00	4.31472
6.85372E+00	4.3159
6.85829E+00	4.31704
6.86271E+00	4.31815
6.86701E+00	4.31922
6.87116E+00	4.32026
6.87382E+00	4.32092
6.87519E+00	4.32126
6.87909E+00	4.32224
6.88287E+00	4.32318
6.88653E+00	4.3241
6.89179E+00	4.32541
6.89684E+00	4.32668
6.89695E+00	4.3267
6.90162E+00	4.32787
6.90621E+00	4.32902
6.91056E+00	4.33011
6.91473E+00	4.33115
6.91516E+00	4.33126
6.91868E+00	4.33214
6.92248E+00	4.33309
6.92272E+00	4.33315
6.92732E+00	4.33431
6.93186E+00	4.33545
6.93612E+00	4.33652
6.94011E+00	4.33752
6.94386E+00	4.33846
6.94906E+00	4.33977
6.95032E+00	4.34008
6.95374E+00	4.34094
6.95803E+00	4.34202
6.96065E+00	4.34268
6.96557E+00	4.34391
6.96680E+00	4.34422
6.96988E+00	4.34499
6.97364E+00	4.34594
6.97516E+00	4.34632
6.97838E+00	4.34713
6.98234E+00	4.34812
6.98676E+00	4.34923
6.99007E+00	4.35006
6.99503E+00	4.35131
7.00000E+00	4.35255
7.01441E+00	4.3546
7.02523E+00	4.35613
7.02883E+00	4.35664
7.04144E+00	4.35842
7.04938E+00	4.35955
7.05766E+00	4.36072
7.07963E+00	4.36383
7.10115E+00	4.36688
7.10137E+00	4.36691
7.11782E+00	4.36924
7.12210E+00	4.36984
7.14262E+00	4.37275
7.14327E+00	4.37284
7.16261E+00	4.37558
7.18219E+00	4.37835
7.18301E+00	4.37847
7.20775E+00	4.38197
7.22111E+00	4.38387
7.23250E+00	4.38548
7.23762E+00	4.3862
7.25649E+00	4.38891
7.25724E+00	4.38902
7.26884E+00	4.39068
7.27972E+00	4.39224
7.29187E+00	4.39399
7.30223E+00	4.39547
7.32404E+00	4.3986
7.33613E+00	4.40034
7.34516E+00	4.40163
7.36562E+00	4.40457
7.37762E+00	4.40629
7.38545E+00	4.40742
7.39769E+00	4.40917
7.40465E+00	4.41017
7.41652E+00	4.41188
7.42326E+00	4.41284
7.45001E+00	4.41668
7.45299E+00	4.41711
7.47566E+00	4.42036
7.48717E+00	4.42202
7.49113E+00	4.42259
7.49998E+00	4.42387
7.52329E+00	4.42725
7.53425E+00	4.42884
7.54388E+00	4.43024
7.54541E+00	4.43046
7.56660E+00	4.43354
7.57745E+00	4.43511
7.58671E+00	4.43645
7.60598E+00	4.43925
7.61623E+00	4.44074
7.63060E+00	4.44283
7.65183E+00	4.44591
7.65369E+00	4.44618
7.66904E+00	4.44841
7.67533E+00	4.44933
7.69535E+00	4.45226
7.69563E+00	4.4523
7.69766E+00	4.45259
7.71465E+00	4.45508
7.73343E+00	4.45783
7.74111E+00	4.45895
7.76488E+00	4.46243
7.76675E+00	4.46271
7.78668E+00	4.46563
7.80866E+00	4.46885
7.81252E+00	4.46941
7.83277E+00	4.47238
7.83595E+00	4.47285
7.84374E+00	4.47399
7.85646E+00	4.47587
7.86900E+00	4.47772
7.88277E+00	4.47975
7.88281E+00	4.47975
7.88812E+00	4.48054
7.89743E+00	4.48191
7.92307E+00	4.4857
7.92466E+00	4.48593
7.94951E+00	4.4896
7.96233E+00	4.49149
7.96755E+00	4.49226
7.98918E+00	4.49546
8.00000E+00	4.49706
8.04639E+00	4.49809
8.06250E+00	4.49844
8.09085E+00	4.49907
8.11865E+00	4.49969
8.12109E+00	4.49974
8.13302E+00	4.50001
8.17345E+00	4.50091
8.17603E+00	4.50097
8.21179E+00	4.50176
8.22752E+00	4.50212
8.23907E+00	4.50237
8.24854E+00	4.50259
8.29551E+00	4.50366
8.29844E+00	4.50373
8.29994E+00	4.50377
8.33954E+00	4.50467
8.36350E+00	4.50522
8.38082E+00	4.50562
8.41952E+00	4.50651
8.42193E+00	4.50657
8.45580E+00	4.50735
8.47554E+00	4.5078
8.48528E+00	4.50803
8.49309E+00	4.50821
8.50627E+00	4.50852
8.54110E+00	4.50934
8.55159E+00	4.50959
8.59318E+00	4.51058
8.59846E+00	4.5107
8.61860E+00	4.51118
8.64865E+00	4.5119
8.66628E+00	4.51232
8.67077E+00	4.51242
8.70799E+00	4.51332
8.71179E+00	4.51342
8.73885E+00	4.51407
8.74449E+00	4.51421
8.76462E+00	4.5147
8.79041E+00	4.51533
8.82347E+00	4.51614
8.82883E+00	4.51627
8.87162E+00	4.51732
8.88651E+00	4.51768
8.88889E+00	4.51774
8.91747E+00	4.51845
8.94326E+00	4.5191
8.95874E+00	4.51948
9.00000E+00	4.52052
9.06069E+00	4.51585
9.06936E+00	4.51518
9.11272E+00	4.51185
9.13873E+00	4.50985
9.21779E+00	4.50376
9.24021E+00	4.50203
9.24639E+00	4.50156
9.29033E+00	4.49818
9.34059E+00	4.49433
9.35548E+00	4.49319
9.41525E+00	4.4886
9.45908E+00	4.48525
9.48683E+00	4.48312
9.48835E+00	4.48301
9.49465E+00	4.48252
9.55230E+00	4.47812
9.55825E+00	4.47767
9.60827E+00	4.47386
9.66868E+00	4.46926
9.67213E+00	4.469
9.67866E+00	4.4685
9.73757E+00	4.46403
9.78257E+00	4.46062
9.80318E+00	4.45906
9.86023E+00	4.45474
9.87347E+00	4.45374
9.88949E+00	4.45253
9.93674E+00	4.44896
9.95341E+00	4.4477
1.00000E+01	4.4442
1.00420E+01	4.42334
1.01299E+01	4.41703
1.01411E+01	4.41624
1.01727E+01	4.41397
1.01837E+01	4.41318
1.02106E+01	4.40855
1.02141E+01	4.40795
1.03062E+01	4.39213
1.03163E+01	4.3904
1.03196E+01	4.38983
1.03273E+01	4.3885
1.03330E+01	4.38752
1.03582E+01	4.3832
1.03929E+01	4.37724
1.04652E+01	4.36485
1.04664E+01	4.36465
1.04688E+01	4.36427
1.04730E+01	4.36363
1.04856E+01	4.36172
1.05187E+01	4.35672
1.05210E+01	4.35636
1.05662E+01	4.34951
1.06203E+01	4.34132
1.06204E+01	4.3413
1.06208E+01	4.34124
1.06336E+01	4.33931
1.06390E+01	4.33849
1.06665E+01	4.33432
1.07153E+01	4.32694
1.07605E+01	4.32012
1.07706E+01	4.31858
1.08132E+01	4.31216
1.08170E+01	4.31158
1.08195E+01	4.3112
1.08303E+01	4.30957
1.08320E+01	4.30935
1.08799E+01	4.30291
1.08802E+01	4.30287
1.08952E+01	4.30086
1.09083E+01	4.2991
1.09226E+01	4.29719
1.09248E+01	4.29689
1.09287E+01	4.29637
1.09386E+01	4.29504
1.09401E+01	4.29484
1.09539E+01	4.29298
1.09600E+01	4.29218
1.09701E+01	4.29082
1.09704E+01	4.29078
1.09775E+01	4.28982
1.09832E+01	4.28907
1.09848E+01	4.28885
1.09852E+01	4.28879
1.09874E+01	4.2885
1.09917E+01	4.28792
1.09947E+01	4.28752
1.09982E+01	4.28705
1.10000E+01	4.28681
1.10075E+01	4.28569
1.10111E+01	4.28513
1.10221E+01	4.28349
1.10222E+01	4.28347
1.10327E+01	4.28189
1.10364E+01	4.28133
1.10431E+01	4.28032
1.10502E+01	4.27925
1.10567E+01	4.27828
1.10636E+01	4.27724
1.10699E+01	4.27629
1.10765E+01	4.27529
1.10826E+01	4.27437
1.10891E+01	4.2734
1.10950E+01	4.27251
1.11012E+01	4.27157
1.11069E+01	4.27071
1.11120E+01	4.26994
1.11130E+01	4.2698
1.11185E+01	4.26897
1.11203E+01	4.2687
1.11244E+01	4.26808
1.11298E+01	4.26728
1.11355E+01	4.26642
1.11406E+01	4.26564
1.11462E+01	4.26481
1.11512E+01	4.26405
1.11552E+01	4.26345
1.11614E+01	4.26252
1.11616E+01	4.26249
1.11713E+01	4.26103
1.11763E+01	4.26027
1.11855E+01	4.25889
1.11872E+01	4.25864
1.11903E+01	4.25817
1.11992E+01	4.25684
1.12035E+01	4.25618
1.12037E+01	4.25615
1.12091E+01	4.25534
1.12121E+01	4.2549
1.12164E+01	4.25424
1.12190E+01	4.25387
1.12245E+01	4.25311
1.12286E+01	4.25254
1.12363E+01	4.25151
1.12402E+01	4.25097
1.12475E+01	4.24997
1.12513E+01	4.24945
1.12582E+01	4.24851
1.12655E+01	4.24752
1.12685E+01	4.24711
1.12772E+01	4.24592
1.12788E+01	4.24571
1.12816E+01	4.24533
1.12912E+01	4.24401
1.12938E+01	4.24365
1.13016E+01	4.2426
1.13029E+01	4.24242
1.13032E+01	4.24238
1.13053E+01	4.24208
1.13126E+01	4.2411
1.13138E+01	4.24093
1.13161E+01	4.24061
1.13263E+01	4.23923
1.13291E+01	4.23885
1.13403E+01	4.23732
1.13427E+01	4.23699
1.13530E+01	4.23559
1.13553E+01	4.23528
1.13629E+01	4.23423
1.13646E+01	4.23401
1.13773E+01	4.23228
1.13783E+01	4.23214
1.13851E+01	4.23122
1.13884E+01	4.23077
1.13898E+01	4.23058
1.13899E+01	4.23056
1.13908E+01	4.23044
1.14009E+01	4.22906
1.14017E+01	4.22896
1.14148E+01	4.22718
1.14157E+01	4.22706
1.14235E+01	4.226
1.14264E+01	4.22561
1.14371E+01	4.22415
1.14393E+01	4.22385
1.14512E+01	4.22223
1.14531E+01	4.22197
1.14607E+01	4.22093
1.14627E+01	4.22067
1.14656E+01	4.22028
1.14722E+01	4.21938
1.14780E+01	4.21858
1.14891E+01	4.21563
1.14919E+01	4.21521
1.14943E+01	4.21488
1.15101E+01	4.21268
1.15254E+01	4.21056
1.15403E+01	4.20849
1.15546E+01	4.2065
1.15616E+01	4.20553
1.15685E+01	4.20457
1.15820E+01	4.20269
1.15886E+01	4.20179
1.16003E+01	4.20015
1.16010E+01	4.20006
1.16014E+01	4.2
1.16077E+01	4.19912
1.16085E+01	4.19902
1.16200E+01	4.19742
1.16259E+01	4.1966
1.16376E+01	4.19498
1.16434E+01	4.19418
1.16512E+01	4.1931
1.16545E+01	4.19264
1.16599E+01	4.19189
1.16705E+01	4.19042
1.16758E+01	4.18969
1.16859E+01	4.18829
1.16908E+01	4.18761
1.17003E+01	4.1863
1.17052E+01	4.18561
1.17055E+01	4.18557
1.17099E+01	4.18497
1.17237E+01	4.18306
1.17239E+01	4.18302
1.17409E+01	4.18067
1.17412E+01	4.18064
1.17571E+01	4.17843
1.17574E+01	4.1784
1.17723E+01	4.17633
1.17725E+01	4.1763
1.17739E+01	4.17611
1.17865E+01	4.17436
1.17936E+01	4.17338
1.18042E+01	4.17191
1.18063E+01	4.17162
1.18073E+01	4.17149
1.18126E+01	4.17076
1.18156E+01	4.17035
1.18241E+01	4.16917
1.18282E+01	4.16861
1.18300E+01	4.16838
1.18404E+01	4.16703
1.18504E+01	4.16575
1.18505E+01	4.16573
1.18691E+01	4.16335
1.18692E+01	4.16333
1.18751E+01	4.16258
1.18855E+01	4.16124
1.18856E+01	4.16123
1.18864E+01	4.16112
1.18998E+01	4.1594
1.19025E+01	4.15905
1.19037E+01	4.15891
1.19066E+01	4.15853
1.19178E+01	4.15709
1.19182E+01	4.15703
1.19242E+01	4.15627
1.19329E+01	4.15516
1.19387E+01	4.15441
1.19496E+01	4.153
1.19598E+01	4.1517
1.19620E+01	4.15141
1.19676E+01	4.15069
1.19741E+01	4.14986
1.19823E+01	4.14882
1.19838E+01	4.14862
1.19914E+01	4.14765
1.20000E+01	4.14654
1.20158E+01	4.14478
1.20230E+01	4.14398
1.20265E+01	4.14358
1.20394E+01	4.14214
1.20459E+01	4.14142
1.20681E+01	4.13719
1.20757E+01	4.13575
1.20899E+01	4.13305
1.21046E+01	4.13026
1.21111E+01	4.12902
1.21319E+01	4.12507
1.21326E+01	4.12495
1.21455E+01	4.12249
1.21597E+01	4.1198
1.21652E+01	4.11876
1.21693E+01	4.11797
1.21722E+01	4.11742
1.21859E+01	4.11481
1.21981E+01	4.11251
1.22173E+01	4.10885
1.22231E+01	4.10776
1.22237E+01	4.10765
1.22474E+01	4.10316
1.22599E+01	4.10079
1.22709E+01	4.0987
1.22777E+01	4.09742
1.22937E+01	4.09482
1.22942E+01	4.09474
1.23152E+01	4.09135
1.23158E+01	4.09125
1.23271E+01	4.08942
1.23370E+01	4.08782
1.23372E+01	4.0878
1.23410E+01	4.08718
1.23579E+01	4.08445
1.23584E+01	4.08437
1.23608E+01	4.08397
1.23779E+01	4.08121
1.23883E+01	4.07955
1.23974E+01	4.07808
1.24166E+01	4.07497
1.24253E+01	4.07357
1.24407E+01	4.07108
1.24438E+01	4.07058
1.24509E+01	4.06945
1.24521E+01	4.06925
1.24715E+01	4.06613
1.24775E+01	4.06519
1.24786E+01	4.06503
1.24900E+01	4.06327
1.25019E+01	4.06144
1.25112E+01	4.06
1.25206E+01	4.05855
1.25250E+01	4.05787
1.25417E+01	4.0553
1.25472E+01	4.05446
1.25682E+01	4.05123
1.25704E+01	4.05089
1.25805E+01	4.04932
1.25883E+01	4.04813
1.25972E+01	4.04676
1.26140E+01	4.04418
1.26264E+01	4.04228
1.26265E+01	4.04226
1.26346E+01	4.04102
1.26382E+01	4.04047
1.26608E+01	4.03699
1.26662E+01	4.03616
1.26681E+01	4.03586
1.26820E+01	4.03374
1.26918E+01	4.03222
1.26989E+01	4.03113
1.27018E+01	4.03068
1.27177E+01	4.02825
1.27247E+01	4.02717
1.27295E+01	4.02644
1.27530E+01	4.02284
1.27543E+01	4.02264
1.27771E+01	4.01915
1.27839E+01	4.01812
1.27910E+01	4.01702
1.28047E+01	4.01494
1.28109E+01	4.01398
1.28172E+01	4.01302
1.28230E+01	4.01212
1.28400E+01	4.00953
1.28449E+01	4.00879
1.28459E+01	4.00863
1.28600E+01	4.00648
1.28733E+01	4.00445
1.28852E+01	4.00264
1.29050E+01	3.99962
1.29062E+01	3.99943
1.29287E+01	3.99599
1.29297E+01	3.99585
1.29410E+01	3.99412
1.29548E+01	3.99202
1.29566E+01	3.99174
1.29644E+01	3.99056
1.29771E+01	3.98862
1.29774E+01	3.98858
1.29853E+01	3.98742
1.30000E+01	3.98526
1.30012E+01	3.98508
1.30023E+01	3.98491
1.30034E+01	3.98476
1.30049E+01	3.98454
1.30062E+01	3.98434
1.30074E+01	3.98416
1.30085E+01	3.984
1.30099E+01	3.9838
1.30111E+01	3.98362
1.30121E+01	3.98347
1.30134E+01	3.98327
1.30145E+01	3.98311
1.30157E+01	3.98293
1.30171E+01	3.98274
1.30182E+01	3.98256
1.30194E+01	3.98239
1.30309E+01	3.98067
1.30422E+01	3.97897
1.30500E+01	3.9778
1.30534E+01	3.9773
1.30645E+01	3.97564
1.30754E+01	3.974
1.30797E+01	3.97335
1.30862E+01	3.97238
1.30941E+01	3.9712
1.30969E+01	3.97078
1.31075E+01	3.96919
1.31085E+01	3.96904
1.31179E+01	3.96763
1.31282E+01	3.96608
1.31363E+01	3.96487
1.31384E+01	3.96455
1.31485E+01	3.96304
1.31618E+01	3.96106
1.31633E+01	3.96082
1.31749E+01	3.9591
1.31764E+01	3.95886
1.31834E+01	3.95782
1.31878E+01	3.95716
1.31956E+01	3.95599
1.32004E+01	3.95527
1.32021E+01	3.95501
1.32031E+01	3.95487
1.32099E+01	3.95385
1.32129E+01	3.9534
1.32148E+01	3.95312
1.32252E+01	3.95157
1.32373E+01	3.94976
1.32393E+01	3.94946
1.32493E+01	3.94799
1.32512E+01	3.94769
1.32610E+01	3.94624
1.32725E+01	3.94451
1.32746E+01	3.9442
1.32839E+01	3.94282
1.32861E+01	3.94249
1.32951E+01	3.94115
1.33061E+01	3.93951
1.33085E+01	3.93916
1.33169E+01	3.93789
1.33276E+01	3.9363
1.33301E+01	3.93594
1.33335E+01	3.93542
1.33381E+01	3.93475
1.33405E+01	3.9344
1.33431E+01	3.93404
1.33485E+01	3.93326
1.33587E+01	3.93179
1.33687E+01	3.93035
1.33694E+01	3.93024
1.33713E+01	3.92997
1.33719E+01	3.92988
1.33785E+01	3.92892
1.33882E+01	3.92752
1.33894E+01	3.92736
1.33978E+01	3.92615
1.34004E+01	3.92576
1.34072E+01	3.92479
1.34112E+01	3.92422
1.34211E+01	3.92279
1.34284E+01	3.92173
1.34346E+01	3.92085
1.34478E+01	3.91894
1.34480E+01	3.91891
1.34607E+01	3.91708
1.34641E+01	3.91658
1.34733E+01	3.91527
1.34825E+01	3.91394
1.34856E+01	3.91349
1.34868E+01	3.91331
1.34976E+01	3.91176
1.35073E+01	3.91036
1.35093E+01	3.91007
1.35148E+01	3.90928
1.35208E+01	3.90843
1.35290E+01	3.90725
1.35319E+01	3.90683
1.35429E+01	3.90526
1.35535E+01	3.90373
1.35580E+01	3.90309
1.35585E+01	3.90303
1.35598E+01	3.90283
1.35640E+01	3.90224
1.35741E+01	3.90078
1.35783E+01	3.90019
1.35841E+01	3.89935
1.35861E+01	3.89907
1.35971E+01	3.89749
1.36002E+01	3.89704
1.36097E+01	3.89569
1.36219E+01	3.89394
1.36244E+01	3.89357
1.36337E+01	3.89225
1.36373E+01	3.89173
1.36451E+01	3.8906
1.36562E+01	3.88902
1.36589E+01	3.88863
1.36627E+01	3.88809
1.36670E+01	3.88749
1.36767E+01	3.88614
1.36774E+01	3.88604
1.36812E+01	3.88551
1.36875E+01	3.88465
1.36905E+01	3.88422
1.36972E+01	3.88329
1.37067E+01	3.88198
1.37090E+01	3.88166
1.37099E+01	3.88154
1.37204E+01	3.88009
1.37211E+01	3.87999
1.37333E+01	3.87829
1.37458E+01	3.87657
1.37462E+01	3.87652
1.37493E+01	3.87608
1.37559E+01	3.87516
1.37576E+01	3.87493
1.37689E+01	3.87337
1.37698E+01	3.87324
1.37779E+01	3.87212
1.37796E+01	3.87188
1.37899E+01	3.87046
1.37921E+01	3.87015
1.38007E+01	3.86897
1.38030E+01	3.86865
1.38056E+01	3.86828
1.38153E+01	3.86694
1.38256E+01	3.86552
1.38269E+01	3.86535
1.38377E+01	3.86385
1.38406E+01	3.86346
1.38478E+01	3.86245
1.38537E+01	3.86164
1.38573E+01	3.86114
1.38614E+01	3.86057
1.38692E+01	3.8595
1.38698E+01	3.85942
1.38704E+01	3.85933
1.38824E+01	3.85768
1.38932E+01	3.8562
1.39024E+01	3.85494
1.39031E+01	3.85483
1.39142E+01	3.85332
1.39152E+01	3.85317
1.39258E+01	3.85171
1.39268E+01	3.85158
1.39307E+01	3.85104
1.39394E+01	3.84984
1.39433E+01	3.84931
1.39448E+01	3.8491
1.39470E+01	3.8488
1.39511E+01	3.84824
1.39603E+01	3.84698
1.39634E+01	3.84655
1.39641E+01	3.84645
1.39739E+01	3.8451
1.39816E+01	3.84405
1.39832E+01	3.84382
1.39944E+01	3.84229
1.40000E+01	3.84152
1.40078E+01	3.84055
1.40155E+01	3.83959
1.40232E+01	3.83863
1.40268E+01	3.83818
1.40312E+01	3.83762
1.40379E+01	3.8368
1.40454E+01	3.83585
1.40459E+01	3.83579
1.40486E+01	3.83545
1.40592E+01	3.83413
1.40605E+01	3.83396
1.40665E+01	3.83322
1.40695E+01	3.83285
1.40795E+01	3.83159
1.40867E+01	3.8307
1.40880E+01	3.83054
1.40893E+01	3.83037
1.40989E+01	3.82917
1.41083E+01	3.82801
1.41126E+01	3.82747
1.41138E+01	3.82732
1.41174E+01	3.82686
1.41250E+01	3.82592
1.41258E+01	3.82582
1.41264E+01	3.82575
1.41351E+01	3.82467
1.41368E+01	3.82446
1.41436E+01	3.82361
1.41492E+01	3.82292
1.41519E+01	3.82258
1.41595E+01	3.82165
1.41605E+01	3.82151
1.41627E+01	3.82124
1.41733E+01	3.81994
1.41808E+01	3.81901
1.41818E+01	3.81888
1.41835E+01	3.81867
1.41934E+01	3.81744
1.41975E+01	3.81693
1.42007E+01	3.81653
1.42030E+01	3.81626
1.42110E+01	3.81526
1.42122E+01	3.81511
1.42212E+01	3.81399
1.42282E+01	3.81313
1.42299E+01	3.81291
1.42378E+01	3.81194
1.42384E+01	3.81187
1.42401E+01	3.81165
1.42466E+01	3.81085
1.42534E+01	3.81001
1.42545E+01	3.80987
1.42621E+01	3.80892
1.42705E+01	3.80788
1.42732E+01	3.80755
1.42760E+01	3.8072
1.42838E+01	3.80624
1.42877E+01	3.80575
1.42938E+01	3.80499
1.42968E+01	3.80463
1.42992E+01	3.80433
1.43034E+01	3.80381
1.43125E+01	3.80268
1.43126E+01	3.80267
1.43213E+01	3.8016
1.43222E+01	3.80149
1.43243E+01	3.80123
1.43259E+01	3.80104
1.43296E+01	3.80058
1.43360E+01	3.7998
1.43402E+01	3.79927
1.43444E+01	3.79876
1.43502E+01	3.79805
1.43565E+01	3.79727
1.43578E+01	3.79712
1.43596E+01	3.7969
1.43639E+01	3.79637
1.43684E+01	3.79582
1.43766E+01	3.79481
1.43879E+01	3.79342
1.43883E+01	3.79337
1.43902E+01	3.79315
1.43934E+01	3.79275
1.43978E+01	3.79221
1.43983E+01	3.79214
1.44077E+01	3.791
1.44088E+01	3.79086
1.44162E+01	3.78995
1.44176E+01	3.78978
1.44267E+01	3.78866
1.44314E+01	3.78808
1.44316E+01	3.78806
1.44359E+01	3.78754
1.44439E+01	3.78655
1.44470E+01	3.78616
1.44540E+01	3.78531
1.44560E+01	3.78506
1.44624E+01	3.78428
1.44718E+01	3.78312
1.44771E+01	3.78247
1.44780E+01	3.78236
1.44819E+01	3.78189
1.44823E+01	3.78183
1.44909E+01	3.78078
1.44914E+01	3.78072
1.45000E+01	3.77968
1.45121E+01	3.77821
1.45239E+01	3.77679
1.45352E+01	3.77541
1.45356E+01	3.77536
1.45463E+01	3.77407
1.45485E+01	3.7738
1.45570E+01	3.77278
1.45683E+01	3.77141
1.45697E+01	3.77124
1.45723E+01	3.77092
1.45870E+01	3.76914
1.45883E+01	3.76899
1.45909E+01	3.76867
1.45976E+01	3.76785
1.46009E+01	3.76746
1.46010E+01	3.76745
1.46144E+01	3.76583
1.46246E+01	3.7646
1.46257E+01	3.76445
1.46271E+01	3.76429
1.46392E+01	3.76282
1.46443E+01	3.76221
1.46508E+01	3.76142
1.46575E+01	3.76061
1.46585E+01	3.76049
1.46618E+01	3.76009
1.46760E+01	3.75837
1.46863E+01	3.75712
1.46872E+01	3.75701
1.46890E+01	3.7568
1.46892E+01	3.75677
1.46940E+01	3.75619
1.47016E+01	3.75528
1.47115E+01	3.75409
1.47133E+01	3.75388
1.47233E+01	3.75268
1.47242E+01	3.75257
1.47387E+01	3.75083
1.47394E+01	3.75075
1.47435E+01	3.75026
1.47439E+01	3.75022
1.47530E+01	3.74912
1.47535E+01	3.74906
1.47656E+01	3.74762
1.47777E+01	3.74617
1.47804E+01	3.74584
1.47833E+01	3.7455
1.47871E+01	3.74504
1.47901E+01	3.74468
1.47938E+01	3.74423
1.48052E+01	3.74286
1.48056E+01	3.74282
1.48069E+01	3.74266
1.48123E+01	3.74202
1.48207E+01	3.74101
1.48250E+01	3.74049
1.48291E+01	3.74
1.48348E+01	3.73932
1.48438E+01	3.73824
1.48502E+01	3.73748
1.48552E+01	3.73688
1.48590E+01	3.73642
1.48670E+01	3.73547
1.48694E+01	3.73518
1.48703E+01	3.73508
1.48818E+01	3.7337
1.48880E+01	3.73295
1.49020E+01	3.73102
1.49143E+01	3.72932
1.49160E+01	3.72908
1.49265E+01	3.72762
1.49297E+01	3.72719
1.49370E+01	3.72617
1.49426E+01	3.7254
1.49439E+01	3.72521
1.49515E+01	3.72424
1.49528E+01	3.72408
1.49569E+01	3.72354
1.49685E+01	3.72205
1.49723E+01	3.72156
1.49790E+01	3.7207
1.49843E+01	3.72003
1.49862E+01	3.71978
1.50000E+01	3.718
1.50233E+01	3.71549
1.50461E+01	3.71303
1.50464E+01	3.71301
1.50625E+01	3.71127
1.50684E+01	3.71064
1.50902E+01	3.7083
1.50909E+01	3.70822
1.51114E+01	3.70602
1.51211E+01	3.70497
1.51321E+01	3.70378
1.51330E+01	3.70369
1.51524E+01	3.7016
1.51547E+01	3.70135
1.51624E+01	3.70052
1.51722E+01	3.69947
1.51734E+01	3.69934
1.51760E+01	3.69906
1.51915E+01	3.6974
1.52104E+01	3.69537
1.52118E+01	3.69522
1.52243E+01	3.69387
1.52275E+01	3.69352
1.52288E+01	3.69339
1.52468E+01	3.69145
1.52485E+01	3.69126
1.52500E+01	3.69111
1.52702E+01	3.68896
1.52728E+01	3.68869
1.52758E+01	3.68836
1.52930E+01	3.68654
1.52955E+01	3.68627
1.53151E+01	3.68419
1.53182E+01	3.68386
1.53365E+01	3.68191
1.53395E+01	3.68159
1.53423E+01	3.6813
1.53572E+01	3.67971
1.53608E+01	3.67933
1.53685E+01	3.67851
1.53764E+01	3.67768
1.53773E+01	3.67758
1.53808E+01	3.67721
1.53968E+01	3.67551
1.54008E+01	3.67508
1.54033E+01	3.67482
1.54156E+01	3.67351
1.54195E+01	3.67309
1.54339E+01	3.67157
1.54382E+01	3.67111
1.54516E+01	3.66969
1.54558E+01	3.66924
1.54581E+01	3.669
1.54687E+01	3.66787
1.54853E+01	3.66611
1.54903E+01	3.66558
1.54919E+01	3.66541
1.55063E+01	3.66389
1.55078E+01	3.66372
1.55083E+01	3.66367
1.55093E+01	3.66356
1.55321E+01	3.66118
1.55371E+01	3.66065
1.55516E+01	3.65913
1.55539E+01	3.65889
1.55698E+01	3.65723
1.55702E+01	3.65718
1.55746E+01	3.65672
1.55801E+01	3.65615
1.55854E+01	3.65559
1.55932E+01	3.65477
1.55944E+01	3.65464
1.56132E+01	3.65267
1.56186E+01	3.65211
1.56236E+01	3.65159
1.56309E+01	3.65082
1.56313E+01	3.65078
1.56543E+01	3.64837
1.56663E+01	3.64712
1.56706E+01	3.64666
1.56759E+01	3.64611
1.56770E+01	3.64599
1.56836E+01	3.6453
1.56962E+01	3.644
1.57080E+01	3.64277
1.57105E+01	3.64251
1.57152E+01	3.64202
1.57174E+01	3.64179
1.57310E+01	3.64037
1.57330E+01	3.64017
1.57439E+01	3.63903
1.57445E+01	3.63897
1.57575E+01	3.63763
1.57692E+01	3.63641
1.57800E+01	3.6353
1.57891E+01	3.63436
1.57904E+01	3.63422
1.57940E+01	3.63385
1.57981E+01	3.63344
1.58002E+01	3.63322
1.58052E+01	3.6327
1.58187E+01	3.63132
1.58288E+01	3.63028
1.58414E+01	3.62899
1.58455E+01	3.62856
1.58486E+01	3.62826
1.58554E+01	3.62755
1.58612E+01	3.62696
1.58716E+01	3.62589
1.58785E+01	3.62518
1.58945E+01	3.62354
1.59004E+01	3.62294
1.59006E+01	3.62292
1.59007E+01	3.62291
1.59037E+01	3.6226
1.59186E+01	3.62108
1.59321E+01	3.6197
1.59361E+01	3.6193
1.59390E+01	3.61901
1.59519E+01	3.61769
1.59608E+01	3.61679
1.59669E+01	3.61616
1.59787E+01	3.61496
1.59804E+01	3.61479
1.60000E+01	3.61279
1.60312E+01	3.60905
1.60615E+01	3.60543
1.60625E+01	3.60532
1.60909E+01	3.60193
1.60918E+01	3.60182
1.61193E+01	3.59853
1.61211E+01	3.59831
1.61601E+01	3.59365
1.61760E+01	3.59175
1.61993E+01	3.58898
1.62018E+01	3.58868
1.62257E+01	3.58582
1.62364E+01	3.58454
1.62500E+01	3.58292
1.62517E+01	3.58273
1.62720E+01	3.58032
1.62758E+01	3.57987
1.63058E+01	3.57632
1.63211E+01	3.57451
1.63382E+01	3.57249
1.63423E+01	3.572
1.63689E+01	3.56885
1.63834E+01	3.56714
1.63983E+01	3.56537
1.64033E+01	3.56478
1.64059E+01	3.56447
1.64359E+01	3.56093
1.64406E+01	3.56038
1.64546E+01	3.55871
1.64712E+01	3.55676
1.64779E+01	3.55597
1.64781E+01	3.55594
1.64802E+01	3.5557
1.65042E+01	3.55286
1.65105E+01	3.55212
1.65352E+01	3.5492
1.65431E+01	3.54826
1.65452E+01	3.54803
1.65642E+01	3.54578
1.65717E+01	3.5449
1.66002E+01	3.54153
1.66047E+01	3.54101
1.66250E+01	3.53861
1.66252E+01	3.53859
1.66286E+01	3.5382
1.66409E+01	3.53675
1.66721E+01	3.53312
1.66742E+01	3.53287
1.66868E+01	3.5314
1.66926E+01	3.53073
1.66946E+01	3.53049
1.67156E+01	3.52804
1.67322E+01	3.52611
1.67328E+01	3.52604
1.67443E+01	3.5247
1.67489E+01	3.52421
1.67662E+01	3.52238
1.67867E+01	3.52021
1.67954E+01	3.51928
1.67991E+01	3.51889
1.68117E+01	3.51756
1.68322E+01	3.51539
1.68461E+01	3.51392
1.68629E+01	3.51214
1.68709E+01	3.5113
1.68790E+01	3.51044
1.68972E+01	3.50851
1.69222E+01	3.50587
1.69229E+01	3.5058
1.69314E+01	3.5049
1.69354E+01	3.50447
1.69395E+01	3.50405
1.69615E+01	3.50173
1.69706E+01	3.50077
1.69805E+01	3.49973
1.70000E+01	3.49769
1.70476E+01	3.49261
1.70713E+01	3.49007
1.70951E+01	3.48753
1.71517E+01	3.48156
1.71782E+01	3.47876
1.72047E+01	3.47596
1.72082E+01	3.47559
1.72342E+01	3.47285
1.72398E+01	3.47226
1.72544E+01	3.47072
1.73010E+01	3.46581
1.73072E+01	3.46516
1.73363E+01	3.4621
1.73476E+01	3.46091
1.73652E+01	3.45906
1.73938E+01	3.45605
1.74240E+01	3.45287
1.74291E+01	3.45233
1.74317E+01	3.45207
1.74769E+01	3.44732
1.74831E+01	3.44667
1.75027E+01	3.44461
1.75039E+01	3.44449
1.75254E+01	3.44223
1.75338E+01	3.44135
1.75359E+01	3.44113
1.75809E+01	3.43642
1.75847E+01	3.43602
1.75921E+01	3.43525
1.75939E+01	3.43506
1.76366E+01	3.43059
1.76519E+01	3.42899
1.76941E+01	3.42459
1.76954E+01	3.42445
1.77019E+01	3.42377
1.77297E+01	3.42087
1.77502E+01	3.41873
1.77566E+01	3.41807
1.77716E+01	3.41651
1.77738E+01	3.41628
1.77992E+01	3.41364
1.78042E+01	3.41312
1.78174E+01	3.41175
1.78289E+01	3.41056
1.78709E+01	3.40622
1.78802E+01	3.40526
1.79021E+01	3.40299
1.79230E+01	3.40084
1.79570E+01	3.39733
1.79743E+01	3.39554
1.79799E+01	3.39497
1.80000E+01	3.39289
1.80773E+01	3.38213
1.81352E+01	3.37407
1.81546E+01	3.37138
1.81932E+01	3.36601
1.82222E+01	3.36199
1.82511E+01	3.35796
1.82539E+01	3.35757
1.83091E+01	3.34992
1.83955E+01	3.33847
1.84332E+01	3.33346
1.84710E+01	3.32846
1.84804E+01	3.32721
1.84818E+01	3.32703
1.85041E+01	3.32408
1.85115E+01	3.32311
1.85372E+01	3.31971
1.85674E+01	3.31571
1.85950E+01	3.31206
1.86033E+01	3.31097
1.86529E+01	3.30443
1.86599E+01	3.30349
1.86963E+01	3.2987
1.87450E+01	3.29228
1.87726E+01	3.28864
1.87768E+01	3.28809
1.88007E+01	3.28495
1.88294E+01	3.28118
1.88543E+01	3.2779
1.88719E+01	3.27559
1.89150E+01	3.26992
1.89256E+01	3.26853
1.89573E+01	3.26437
1.89737E+01	3.26223
1.89893E+01	3.26019
1.90000E+01	3.25879
1.90167E+01	3.25629
1.90334E+01	3.25381
1.90938E+01	3.24634
1.91542E+01	3.23888
1.92071E+01	3.23235
1.92599E+01	3.22583
1.92681E+01	3.22483
1.93019E+01	3.22066
1.93443E+01	3.21544
1.93525E+01	3.21443
1.93657E+01	3.21281
1.93929E+01	3.20945
1.94450E+01	3.20306
1.95042E+01	3.19578
1.95143E+01	3.19453
1.95399E+01	3.1914
1.95742E+01	3.18719
1.95922E+01	3.18498
1.96282E+01	3.18058
1.96432E+01	3.17874
1.96694E+01	3.17553
1.96878E+01	3.17328
1.97560E+01	3.16494
1.97961E+01	3.16004
1.98156E+01	3.15766
1.98216E+01	3.15693
1.98439E+01	3.15421
1.98504E+01	3.15342
1.98954E+01	3.14793
1.99168E+01	3.14533
2.00000E+01	3.1352