E(MeV)	"ENDF/B-VIII.b5: SE-82(N,TOT)"	
1.00000E-11	34.0168	
1.10304E-11	32.4219	
1.21669E-11	30.9049	
1.34206E-11	29.4652	
1.34592E-11	29.4213	
1.48034E-11	28.0931	
1.48460E-11	28.0514	
1.63287E-11	26.7886	
1.63757E-11	26.749	
1.80111E-11	25.5485	
1.80629E-11	25.5108	
1.98669E-11	24.3698	
1.99241E-11	24.334	
2.19139E-11	23.2496	
2.19770E-11	23.2156	
2.41719E-11	22.1905	
2.44125E-11	22.0792	
2.66625E-11	21.1832	
2.71165E-11	21.0041	
2.94097E-11	20.2256	
3.01215E-11	19.9863	
3.24400E-11	19.3156	
3.34578E-11	19.024	
3.57825E-11	18.451	
3.71656E-11	18.1135	
3.94694E-11	17.63	
4.12821E-11	17.2533	
4.35362E-11	16.8505	
4.58569E-11	16.4401	
4.80221E-11	16.1109	
5.09362E-11	15.6724	
5.29701E-11	15.4093	
5.65809E-11	14.9473	
5.84280E-11	14.7442	
6.28479E-11	14.2634	
6.44483E-11	14.1139	
6.98126E-11	13.6183	
7.10888E-11	13.5171	
7.75452E-11	13.0106	
7.84136E-11	12.9522	
8.61387E-11	12.4381	
8.64931E-11	12.4179	
9.54051E-11	11.9152	
9.56796E-11	11.8998	
1.05235E-10	11.4432	
1.06283E-10	11.3937	
1.16078E-10	10.9976	
1.18055E-10	10.9185	
1.28039E-10	10.579	
1.32056E-10	10.4438	
1.41231E-10	10.183	
1.47718E-10	10.0007	
1.55784E-10	9.80939	
1.65237E-10	9.58769	
1.71835E-10	9.45723	
1.84834E-10	9.20323	
1.89540E-10	9.12578	
2.06755E-10	8.84593	
2.09070E-10	8.81444	
2.30612E-10	8.52514	
2.32908E-10	8.49466	
2.54374E-10	8.25822	
2.62355E-10	8.17134	
2.80584E-10	8.00697	
2.95540E-10	7.87377	
3.09494E-10	7.77156	
3.35255E-10	7.58531	
3.41383E-10	7.54912	
3.76558E-10	7.34428	
3.80307E-10	7.32272	
4.15358E-10	7.15963	
4.34433E-10	7.07204	
4.58155E-10	6.98454	
4.96290E-10	6.84591	
5.05362E-10	6.8196	
5.57433E-10	6.67097	
5.70924E-10	6.63299	
6.14869E-10	6.53585	
6.61382E-10	6.43463	
6.78223E-10	6.40619	
7.48105E-10	6.29023	
7.71577E-10	6.25188	
8.25188E-10	6.18494	
9.06483E-10	6.08523	
9.10213E-10	6.08177	
1.00400E-09	5.99649	
1.07244E-09	5.93539	
1.10745E-09	5.91218	
1.22155E-09	5.83816	
1.28667E-09	5.79671	
1.34742E-09	5.76866	
1.48625E-09	5.70603	
1.56548E-09	5.67102	
1.63939E-09	5.64794	
1.80831E-09	5.59652	
1.94510E-09	5.55581	
1.99463E-09	5.54573	
2.20016E-09	5.50514	
2.42685E-09	5.4615	
2.48559E-09	5.45045	
2.67691E-09	5.42689	
2.95273E-09	5.39396	
3.25697E-09	5.35862	
3.26634E-09	5.35756	
3.59256E-09	5.33447	
3.96272E-09	5.30916	
4.37103E-09	5.28209	
4.47681E-09	5.27527	
4.82141E-09	5.26214	
5.31819E-09	5.24398	
5.86616E-09	5.22469	
6.47059E-09	5.20411	
6.48921E-09	5.20349	
7.13730E-09	5.19182	
7.87271E-09	5.17921	
8.68389E-09	5.16591	
9.57865E-09	5.15181	
1.02316E-08	5.14189	
1.05656E-08	5.13935	
1.16543E-08	5.13161	
1.28551E-08	5.12357	
1.41796E-08	5.11517	
1.56406E-08	5.10635	
1.72522E-08	5.09706	
1.85573E-08	5.08983	
1.90298E-08	5.08836	
2.09906E-08	5.08266	
2.31534E-08	5.07674	
2.52419E-08	5.07132	
2.52781E-08	5.07122	
2.53000E-08	5.07118	
2.79068E-08	5.06792	
3.07823E-08	5.06465	
3.39540E-08	5.06135	
3.74525E-08	5.058	
4.13115E-08	5.05458	
4.55681E-08	5.05107	
5.02633E-08	5.04744	
5.54423E-08	5.04369	
6.11549E-08	5.03977	
6.74561E-08	5.03568	
7.08479E-08	5.03357	
7.44066E-08	5.03285	
8.20732E-08	5.03148	
9.05297E-08	5.03016	
9.98577E-08	5.02888	
1.10147E-07	5.02764	
1.21496E-07	5.02643	
1.34014E-07	5.02525	
1.47823E-07	5.02411	
1.64204E-07	5.02289	
1.81123E-07	5.02178	
1.99786E-07	5.02067	
2.20371E-07	5.01958	
2.43077E-07	5.01848	
2.68123E-07	5.01738	
2.95750E-07	5.01627	
3.28508E-07	5.01507	
3.62357E-07	5.01391	
3.99693E-07	5.01273	
4.40876E-07	5.01152	
4.86303E-07	5.01026	
5.36410E-07	5.00894	
5.95854E-07	5.00747	
6.57249E-07	5.00601	
6.71190E-07	5.0057	
7.24969E-07	5.00536	
7.99668E-07	5.00495	
8.82063E-07	5.00456	
9.72949E-07	5.00418	
1.07320E-06	5.00382	
1.20889E-06	5.00341	
1.34285E-06	5.00306	
1.48122E-06	5.00275	
1.63384E-06	5.00244	
1.80218E-06	5.00215	
1.98787E-06	5.00187	
2.19270E-06	5.0016	
2.40169E-06	5.00135	
2.66784E-06	5.00108	
2.92211E-06	5.00085	
3.20077E-06	5.00062	
3.50584E-06	5.00039	
3.86707E-06	5.00016	
4.26552E-06	4.99992	
4.70503E-06	4.99969	
5.30017E-06	4.99941	
5.80533E-06	4.99919	
6.31441E-06	4.99899	
6.86813E-06	4.99879	
7.57580E-06	4.99855	
8.35638E-06	4.99831	
9.21740E-06	4.99806	
1.03833E-05	4.99774	
1.15334E-05	4.99745	
1.26333E-05	4.99719	
1.37411E-05	4.99693	
1.50508E-05	4.99664	
1.66016E-05	4.99632	
1.83121E-05	4.99597	
2.00585E-05	4.99562	
2.13632E-05	4.99537	
2.30749E-05	4.99505	
2.50984E-05	4.99468	
2.71081E-05	4.99431	
2.94853E-05	4.99389	
3.25233E-05	4.99335	
3.56249E-05	4.99282	
3.84775E-05	4.99233	
4.21468E-05	4.99171	
4.61639E-05	4.99104	
5.02121E-05	4.99037	
5.42353E-05	4.98971	
5.85781E-05	4.989	
6.41644E-05	4.9881	
7.02799E-05	4.98711	
7.64429E-05	4.98612	
8.43193E-05	4.98487	
9.17134E-05	4.98369	
9.97559E-05	4.98242	
1.07749E-04	4.98115	
1.16377E-04	4.97979	
1.25701E-04	4.97833	
1.37682E-04	4.97645	
1.49756E-04	4.97456	
1.62888E-04	4.9725	
1.82206E-04	4.96949	
1.98184E-04	4.967	
2.14064E-04	4.96452	
2.31204E-04	4.96186	
2.47981E-04	4.95925	
2.65974E-04	4.95645	
2.89298E-04	4.95283	
3.12341E-04	4.94926	
3.36420E-04	4.94552	
3.65921E-04	4.94095	
3.97583E-04	4.93605	
4.29439E-04	4.93111	
4.60599E-04	4.92629	
4.92778E-04	4.92131	
5.24832E-04	4.91635	
5.51221E-04	4.91227	
5.58998E-04	4.91128	
6.03142E-04	4.90566	
6.51470E-04	4.89952	
7.06644E-04	4.8925	
7.57918E-04	4.88598	
7.95139E-04	4.88125	
8.58851E-04	4.87315	
9.21168E-04	4.86523	
9.85531E-04	4.85706	
1.04964E-03	4.84891	
1.11648E-03	4.84042	
1.20626E-03	4.82901	
1.30256E-03	4.81678	
1.41669E-03	4.80228	
1.50884E-03	4.79058	
1.59025E-03	4.78024	
1.68875E-03	4.76773	
1.82214E-03	4.75079	
1.94361E-03	4.73537	
2.04124E-03	4.72297	
2.12886E-03	4.71185	
2.18500E-03	4.70472	
2.20041E-03	4.70216	
2.28601E-03	4.68796	
2.35500E-03	4.67652	
2.44000E-03	4.66242	
2.52500E-03	4.64833	
2.57869E-03	4.63943	
2.62841E-03	4.63118	
2.68416E-03	4.62194	
2.73302E-03	4.61384	
2.77158E-03	4.60745	
2.81068E-03	4.60097	
2.84800E-03	4.59479	
2.88761E-03	4.58822	
2.91600E-03	4.58352	
2.95000E-03	4.57789	
2.96836E-03	4.57485	
2.98077E-03	4.5728	
2.99318E-03	4.57013	
3.01800E-03	4.56477	
3.04027E-03	4.55998	
3.06314E-03	4.55505	
3.08600E-03	4.55013	
3.10436E-03	4.54617	
3.12578E-03	4.54156	
3.14720E-03	4.53696	
3.16148E-03	4.53389	
3.17474E-03	4.53104	
3.18800E-03	4.52819	
3.21019E-03	4.52343	
3.22574E-03	4.52009	
3.24372E-03	4.51624	
3.25787E-03	4.51322	
3.27300E-03	4.50998	
3.28575E-03	4.50727	
3.29529E-03	4.50523	
3.30587E-03	4.50298	
3.31437E-03	4.50117	
3.32400E-03	4.49913	
3.33732E-03	4.49631	
3.34618E-03	4.49444	
3.35505E-03	4.49257	
3.36582E-03	4.49031	
3.37364E-03	4.48867	
3.38078E-03	4.48718	
3.38792E-03	4.48569	
3.39498E-03	4.48423	
3.40203E-03	4.48277	
3.40892E-03	4.48135	
3.41580E-03	4.47994	
3.42260E-03	4.47856	
3.42940E-03	4.47718	
3.43577E-03	4.4759	
3.44215E-03	4.47463	
3.44640E-03	4.47379	
3.45320E-03	4.47246	
3.45830E-03	4.47147	
3.46340E-03	4.47049	
3.46850E-03	4.46952	
3.47360E-03	4.46857	
3.47870E-03	4.46763	
3.48380E-03	4.46671	
3.48890E-03	4.46581	
3.49400E-03	4.46493	
3.49910E-03	4.46408	
3.50250E-03	4.46353	
3.50590E-03	4.46299	
3.50930E-03	4.46248	
3.51270E-03	4.46198	
3.51610E-03	4.4615	
3.51950E-03	4.46105	
3.52290E-03	4.46062	
3.52630E-03	4.46023	
3.52949E-03	4.45989	
3.53246E-03	4.4596	
3.53544E-03	4.45935	
3.53841E-03	4.45914	
3.54139E-03	4.45898	
3.54436E-03	4.45886	
3.54734E-03	4.4588	
3.55031E-03	4.45881	
3.55254E-03	4.45887	
3.55477E-03	4.45898	
3.55701E-03	4.45914	
3.55924E-03	4.45936	
3.56147E-03	4.45966	
3.56370E-03	4.46003	
3.56593E-03	4.46049	
3.56816E-03	4.46106	
3.57039E-03	4.46175	
3.57263E-03	4.46259	
3.57411E-03	4.46323	
3.57560E-03	4.46395	
3.57751E-03	4.46501	
3.57943E-03	4.46625	
3.58134E-03	4.46768	
3.58261E-03	4.46876	
3.58389E-03	4.46996	
3.58516E-03	4.47128	
3.58633E-03	4.47261	
3.58793E-03	4.47466	
3.58899E-03	4.47618	
3.59005E-03	4.47784	
3.59111E-03	4.47967	
3.59217E-03	4.48167	
3.59324E-03	4.48386	
3.59430E-03	4.48628	
3.59557E-03	4.48951	
3.59685E-03	4.49316	
3.59770E-03	4.49586	
3.59855E-03	4.4988	
3.59940E-03	4.502	
3.60025E-03	4.5055	
3.60110E-03	4.50933	
3.60184E-03	4.5136	
3.60259E-03	4.51819	
3.60333E-03	4.52314	
3.60407E-03	4.52848	
3.60482E-03	4.53427	
3.60556E-03	4.54056	
3.60631E-03	4.54741	
3.60705E-03	4.5549	
3.60785E-03	4.56374	
3.60864E-03	4.57355	
3.60918E-03	4.58071	
3.60971E-03	4.58843	
3.61024E-03	4.59676	
3.61077E-03	4.60579	
3.61130E-03	4.61559	
3.61178E-03	4.62514	
3.61226E-03	4.63547	
3.61273E-03	4.64668	
3.61321E-03	4.65886	
3.61369E-03	4.67213	
3.61417E-03	4.68665	
3.61465E-03	4.70256	
3.61513E-03	4.72006	
3.61550E-03	4.73491	
3.61555E-03	4.73721	
3.61587E-03	4.75225	
3.61624E-03	4.77117	
3.61661E-03	4.7916	
3.61698E-03	4.81376	
3.61736E-03	4.83784	
3.61773E-03	4.86411	
3.61810E-03	4.89288	
3.61840E-03	4.91792	
3.61870E-03	4.94499	
3.61899E-03	4.97434	
3.61929E-03	5.00625	
3.61959E-03	5.04105	
3.61989E-03	5.07913	
3.62018E-03	5.12095	
3.62039E-03	5.15387	
3.62048E-03	5.16786	
3.62071E-03	5.20974	
3.62095E-03	5.25503	
3.62118E-03	5.30417	
3.62142E-03	5.35767	
3.62165E-03	5.41612	
3.62188E-03	5.48024	
3.62212E-03	5.55088	
3.62235E-03	5.62908	
3.62252E-03	5.69173	
3.62254E-03	5.69994	
3.62273E-03	5.78058	
3.62292E-03	5.86895	
3.62311E-03	5.96622	
3.62331E-03	6.07385	
3.62345E-03	6.1624	
3.62359E-03	6.25859	
3.62374E-03	6.36343	
3.62379E-03	6.41013	
3.62388E-03	6.48073	
3.62403E-03	6.61609	
3.62418E-03	6.76514	
3.62433E-03	6.92989	
3.62448E-03	7.11261	
3.62459E-03	7.26306	
3.62465E-03	7.34858	
3.62470E-03	7.4284	
3.62481E-03	7.61026	
3.62492E-03	7.80784	
3.62503E-03	8.02284	
3.62507E-03	8.1004	
3.62513E-03	8.22527	
3.62525E-03	8.49591	
3.62536E-03	8.79182	
3.62548E-03	9.11554	
3.62560E-03	9.46979	
3.62561E-03	9.52967	
3.62571E-03	9.86448	
3.62583E-03	10.2968	
3.62595E-03	10.7685	
3.62602E-03	11.0977	
3.62604E-03	11.1875	
3.62615E-03	11.7216	
3.62627E-03	12.2995	
3.62638E-03	12.9234	
3.62641E-03	13.1412	
3.62649E-03	13.6019	
3.62660E-03	14.3338	
3.62667E-03	14.8143	
3.62673E-03	15.2396	
3.62686E-03	16.2216	
3.62698E-03	17.2756	
3.62701E-03	17.5009	
3.62711E-03	18.4117	
3.62724E-03	19.6219	
3.62735E-03	20.7406	
3.62741E-03	21.3483	
3.62758E-03	23.1987	
3.62769E-03	24.4739	
3.62779E-03	25.659	
3.62804E-03	28.7732	
3.62855E-03	35.1206	
3.62871E-03	36.9121	
3.62881E-03	38.0977	
3.62898E-03	39.9103	
3.62905E-03	40.5639	
3.62915E-03	41.532	
3.62930E-03	42.7887	
3.62932E-03	42.9261	
3.62946E-03	43.8983	
3.62952E-03	44.1709	
3.62961E-03	44.6584	
3.62973E-03	45.1133	
3.62974E-03	45.1444	
3.62986E-03	45.437	
3.63000E-03	45.5525	
3.63016E-03	45.395	
3.63024E-03	45.1738	
3.63032E-03	44.9387	
3.63048E-03	44.206	
3.63051E-03	44.0095	
3.63064E-03	43.202	
3.63080E-03	41.9833	
3.63095E-03	40.5887	
3.63109E-03	39.189	
3.63116E-03	38.4818	
3.63136E-03	36.1505	
3.63143E-03	35.32	
3.63168E-03	32.1919	
3.63211E-03	26.9049	
3.63228E-03	24.8791	
3.63231E-03	24.4764	
3.63252E-03	22.1872	
3.63262E-03	21.1103	
3.63267E-03	20.5761	
3.63280E-03	19.314	
3.63292E-03	18.1223	
3.63296E-03	17.8236	
3.63305E-03	17.0103	
3.63318E-03	15.9738	
3.63325E-03	15.4406	
3.63332E-03	14.9434	
3.63342E-03	14.2175	
3.63353E-03	13.5376	
3.63361E-03	12.9972	
3.63363E-03	12.9034	
3.63373E-03	12.3196	
3.63384E-03	11.7764	
3.63394E-03	11.2717	
3.63398E-03	11.1137	
3.63405E-03	10.8082	
3.63416E-03	10.3418	
3.63426E-03	9.98948	
3.63429E-03	9.87535	
3.63435E-03	9.66449	
3.63448E-03	9.26792	
3.63460E-03	8.90743	
3.63467E-03	8.73302	
3.63473E-03	8.58288	
3.63485E-03	8.29163	
3.63498E-03	8.02695	
3.63510E-03	7.78617	
3.63521E-03	7.58913	
3.63523E-03	7.55454	
3.63532E-03	7.41209	
3.63543E-03	7.25007	
3.63555E-03	7.10067	
3.63569E-03	6.91897	
3.63584E-03	6.75491	
3.63599E-03	6.60626	
3.63603E-03	6.56763	
3.63614E-03	6.47487	
3.63629E-03	6.35678	
3.63643E-03	6.25267	
3.63658E-03	6.15703	
3.63677E-03	6.04101	
3.63696E-03	5.93637	
3.63715E-03	5.84151	
3.63731E-03	5.76949	
3.63734E-03	5.75571	
3.63753E-03	5.68037	
3.63772E-03	5.61143	
3.63795E-03	5.53806	
3.63820E-03	5.46225	
3.63846E-03	5.39383	
3.63871E-03	5.33176	
3.63897E-03	5.27519	
3.63901E-03	5.26656	
3.63922E-03	5.22555	
3.63948E-03	5.18054	
3.63973E-03	5.13922	
3.64001E-03	5.09739	
3.64032E-03	5.05561	
3.64063E-03	5.01749	
3.64094E-03	4.98259	
3.64125E-03	4.95051	
3.64155E-03	4.92093	
3.64186E-03	4.89357	
3.64201E-03	4.88176	
3.64217E-03	4.86911	
3.64251E-03	4.84504	
3.64288E-03	4.8209	
3.64325E-03	4.79879	
3.64363E-03	4.77847	
3.64400E-03	4.75974	
3.64437E-03	4.74244	
3.64474E-03	4.7264	
3.64530E-03	4.70445	
3.64578E-03	4.6874	
3.64626E-03	4.67177	
3.64673E-03	4.65739	
3.64721E-03	4.64412	
3.64769E-03	4.63184	
3.64817E-03	4.62045	
3.64865E-03	4.60984	
3.64913E-03	4.59995	
3.64971E-03	4.58872	
3.64998E-03	4.584	
3.65029E-03	4.57901	
3.65088E-03	4.57062	
3.65146E-03	4.5629	
3.65205E-03	4.55577	
3.65263E-03	4.54918	
3.65351E-03	4.54017	
3.65417E-03	4.53397	
3.65492E-03	4.52758	
3.65566E-03	4.52171	
3.65640E-03	4.51631	
3.65715E-03	4.51132	
3.65789E-03	4.5067	
3.65863E-03	4.50242	
3.65975E-03	4.49654	
3.66060E-03	4.49245	
3.66145E-03	4.48866	
3.66230E-03	4.48514	
3.66315E-03	4.48186	
3.66443E-03	4.47733	
3.66570E-03	4.47322	
3.66655E-03	4.47069	
3.66761E-03	4.46772	
3.66867E-03	4.46496	
3.66974E-03	4.46238	
3.67080E-03	4.45995	
3.67239E-03	4.45659	
3.67399E-03	4.45352	
3.67505E-03	4.4516	
3.67643E-03	4.44926	
3.67781E-03	4.44707	
3.67919E-03	4.445	
3.68057E-03	4.44305	
3.68196E-03	4.4412	
3.68334E-03	4.43944	
3.68541E-03	4.43696	
3.68759E-03	4.43453	
3.68982E-03	4.43221	
3.69205E-03	4.43002	
3.69428E-03	4.42795	
3.69651E-03	4.42598	
3.69874E-03	4.4241	
3.70098E-03	4.42231	
3.70225E-03	4.42132	
3.70321E-03	4.42072	
3.70544E-03	4.41938	
3.70767E-03	4.41809	
3.70990E-03	4.41685	
3.71288E-03	4.41526	
3.71585E-03	4.41375	
3.71883E-03	4.41228	
3.72180E-03	4.41088	
3.72456E-03	4.40961	
3.72733E-03	4.40837	
3.73009E-03	4.40717	
3.73285E-03	4.40599	
3.73608E-03	4.40464	
3.73931E-03	4.40332	
3.74254E-03	4.40203	
3.74577E-03	4.40076	
3.74899E-03	4.39952	
3.75220E-03	4.3983	
3.75701E-03	4.3965	
3.76183E-03	4.39473	
3.76664E-03	4.39298	
3.77146E-03	4.39126	
3.77627E-03	4.38957	
3.78109E-03	4.38788	
3.78590E-03	4.38622	
3.79072E-03	4.38457	
3.79553E-03	4.38293	
3.80035E-03	4.3813	
3.80356E-03	4.38022	
3.80998E-03	4.37808	
3.81640E-03	4.37594	
3.82282E-03	4.37382	
3.82924E-03	4.37171	
3.83566E-03	4.36961	
3.84301E-03	4.36721	
3.85036E-03	4.36483	
3.85864E-03	4.36215	
3.86692E-03	4.35948	
3.87520E-03	4.35682	
3.88348E-03	4.35416	
3.89176E-03	4.35151	
3.90004E-03	4.34887	
3.90832E-03	4.34623	
3.91660E-03	4.3436	
3.92488E-03	4.34097	
3.93730E-03	4.33703	
3.94972E-03	4.33309	
3.96214E-03	4.32916	
3.97456E-03	4.32524	
3.98698E-03	4.32132	
3.99940E-03	4.3174	
4.01182E-03	4.31349	
4.02424E-03	4.30957	
4.04080E-03	4.30436	
4.05736E-03	4.29915	
4.07392E-03	4.29395	
4.09048E-03	4.28875	
4.10704E-03	4.28355	
4.12912E-03	4.27661	
4.14016E-03	4.27315	
4.15120E-03	4.26872	
4.17328E-03	4.25988	
4.19536E-03	4.25103	
4.21744E-03	4.24218	
4.23952E-03	4.23334	
4.27264E-03	4.22008	
4.30576E-03	4.20682	
4.33888E-03	4.19356	
4.37200E-03	4.1803	
4.41616E-03	4.16263	
4.46032E-03	4.14496	
4.51552E-03	4.11712	
4.52656E-03	4.11156	
4.59042E-03	4.07935	
4.63696E-03	4.05589	
4.68112E-03	4.03363	
4.72528E-03	4.01136	
4.76944E-03	3.98356	
4.81360E-03	3.95576	
4.85776E-03	3.92795	
4.90192E-03	3.90015	
4.94608E-03	3.87235	
4.99024E-03	3.83815	
5.03440E-03	3.80395	
5.07856E-03	3.76974	
5.12272E-03	3.73555	
5.16688E-03	3.6939	
5.21104E-03	3.65225	
5.25520E-03	3.61061	
5.27728E-03	3.58979	
5.29936E-03	3.56515	
5.34352E-03	3.51588	
5.38768E-03	3.46661	
5.43184E-03	3.40819	
5.47600E-03	3.34978	
5.50912E-03	3.30597	
5.54224E-03	3.25435	
5.57536E-03	3.20273	
5.59744E-03	3.16832	
5.60848E-03	3.14852	
5.64160E-03	3.08914	
5.67472E-03	3.02976	
5.69680E-03	2.98458	
5.71888E-03	2.9394	
5.74096E-03	2.89423	
5.76304E-03	2.8428	
5.78512E-03	2.79138	
5.80720E-03	2.73997	
5.82928E-03	2.68154	
5.85136E-03	2.62312	
5.86240E-03	2.59391	
5.87344E-03	2.56139	
5.89552E-03	2.49637	
5.90656E-03	2.46386	
5.91760E-03	2.42788	
5.93968E-03	2.35592	
5.95072E-03	2.31995	
5.96176E-03	2.27996	
5.98384E-03	2.19999	
5.99488E-03	2.16001	
6.00592E-03	2.1162	
6.02248E-03	2.05049	
6.02800E-03	2.02859	
6.03904E-03	1.98073	
6.05560E-03	1.90896	
6.06112E-03	1.88504	
6.07216E-03	1.83287	
6.08872E-03	1.75464	
6.09424E-03	1.72857	
6.10528E-03	1.67248	
6.11632E-03	1.61641	
6.12184E-03	1.58668	
6.13840E-03	1.49752	
6.14944E-03	1.43404	
6.16048E-03	1.37058	
6.16600E-03	1.33885	
6.17152E-03	1.30507	
6.18256E-03	1.23751	
6.18808E-03	1.20375	
6.19360E-03	1.16812	
6.20464E-03	1.09689	
6.21016E-03	1.06129	
6.21568E-03	1.02398	
6.22672E-03	0.949393	
6.23086E-03	0.921437	
6.23914E-03	0.863272	
6.25156E-03	0.776072	
6.25984E-03	0.716107	
6.26812E-03	0.65617	
6.27640E-03	0.596264	
6.28261E-03	0.551361	
6.28468E-03	0.53638	
6.29296E-03	0.476496	
6.30069E-03	0.420643	
6.30262E-03	0.40669	
6.30842E-03	0.365954	
6.31421E-03	0.325254	
6.31614E-03	0.312167	
6.32291E-03	0.266409	
6.32387E-03	0.260116	
6.32884E-03	0.227789	
6.33160E-03	0.210553	
6.33381E-03	0.196783	
6.33850E-03	0.168717	
6.33933E-03	0.163987	
6.34195E-03	0.149032	
6.34540E-03	0.130241	
6.34706E-03	0.121639	
6.34816E-03	0.115917	
6.35058E-03	0.103956	
6.35299E-03	0.0925534	
6.35478E-03	0.0844802	
6.35492E-03	0.0838609	
6.35692E-03	0.0753185	
6.35865E-03	0.0683375	
6.36037E-03	0.061729	
6.36196E-03	0.0559935	
6.36306E-03	0.052228	
6.36334E-03	0.0512903	
6.36444E-03	0.0477348	
6.36555E-03	0.0443591	
6.36665E-03	0.0411694	
6.36769E-03	0.0383541	
6.36852E-03	0.036228	
6.36886E-03	0.0353892	
6.36931E-03	0.0343048	
6.37017E-03	0.0323424	
6.37086E-03	0.030867	
6.37155E-03	0.0294773	
6.37217E-03	0.0283013	
6.37272E-03	0.0273164	
6.37328E-03	0.0263894	
6.37383E-03	0.0255214	
6.37435E-03	0.024762	
6.37483E-03	0.0241014	
6.37531E-03	0.0234881	
6.37567E-03	0.0230596	
6.37576E-03	0.0229641	
6.37604E-03	0.022663	
6.37645E-03	0.0222451	
6.37686E-03	0.0218638	
6.37717E-03	0.0216019	
6.37748E-03	0.0213611	
6.37779E-03	0.0211472	
6.37807E-03	0.020964	
6.37836E-03	0.0207989	
6.37864E-03	0.020652	
6.37893E-03	0.0205235	
6.37921E-03	0.0204136	
6.37947E-03	0.0203299	
6.37973E-03	0.0202618	
6.37999E-03	0.0202094	
6.38025E-03	0.0201728	
6.38050E-03	0.0201522	
6.38070E-03	0.0201473	
6.38093E-03	0.0201532	
6.38115E-03	0.0201713	
6.38140E-03	0.0202064	
6.38143E-03	0.0202112	
6.38165E-03	0.0202561	
6.38190E-03	0.0203206	
6.38214E-03	0.0204001	
6.38239E-03	0.0204949	
6.38263E-03	0.0206051	
6.38280E-03	0.0206889	
6.38288E-03	0.0207346	
6.38314E-03	0.0208888	
6.38340E-03	0.0210605	
6.38366E-03	0.0212496	
6.38392E-03	0.0214564	
6.38418E-03	0.0216809	
6.38446E-03	0.0219487	
6.38475E-03	0.0222383	
6.38503E-03	0.02255	
6.38532E-03	0.022884	
6.38560E-03	0.0232404	
6.38590E-03	0.0236431	
6.38621E-03	0.0240842	
6.38652E-03	0.0245527	
6.38683E-03	0.0250489	
6.38714E-03	0.025573	
6.38756E-03	0.0263159	
6.38797E-03	0.0271095	
6.38839E-03	0.0279546	
6.38880E-03	0.0288518	
6.38928E-03	0.0299652	
6.38956E-03	0.0306401	
6.38970E-03	0.0309806	
6.39011E-03	0.0320562	
6.39066E-03	0.0335757	
6.39122E-03	0.0351942	
6.39173E-03	0.036803	
6.39225E-03	0.0385016	
6.39277E-03	0.0402914	
6.39346E-03	0.0428221	
6.39415E-03	0.0455209	
6.39484E-03	0.0483913	
6.39553E-03	0.0514371	
6.39605E-03	0.0538387	
6.39674E-03	0.0572002	
6.39756E-03	0.0614975	
6.39839E-03	0.0660693	
6.39922E-03	0.0709229	
6.40005E-03	0.0760657	
6.40088E-03	0.0815057	
6.40157E-03	0.0862924	
6.40170E-03	0.087253	
6.40253E-03	0.0933273	
6.40364E-03	0.101923	
6.40446E-03	0.108751	
6.40550E-03	0.117761	
6.40653E-03	0.127315	
6.40757E-03	0.13743	
6.40778E-03	0.139568	
6.40860E-03	0.148147	
6.40964E-03	0.159469	
6.41102E-03	0.17553	
6.41240E-03	0.192739	
6.41330E-03	0.204703	
6.41378E-03	0.21116	
6.41516E-03	0.230856	
6.41633E-03	0.248622	
6.41757E-03	0.268499	
6.41882E-03	0.289515	
6.42047E-03	0.319445	
6.42213E-03	0.351594	
6.42358E-03	0.38164	
6.42434E-03	0.398361	
6.42503E-03	0.413589	
6.42648E-03	0.447532	
6.42792E-03	0.483533	
6.42937E-03	0.521693	
6.42986E-03	0.535204	
6.43096E-03	0.566135	
6.43262E-03	0.615581	
6.43427E-03	0.668312	
6.43538E-03	0.705781	
6.43593E-03	0.72454	
6.43758E-03	0.784483	
6.43924E-03	0.848303	
6.43952E-03	0.859623	
6.44090E-03	0.916285	
6.44255E-03	0.988618	
6.44421E-03	1.06554	
6.44586E-03	1.14743	
6.44752E-03	1.23453	
6.44918E-03	1.32791	
6.44959E-03	1.35128	
6.45166E-03	1.47736	
6.45373E-03	1.61317	
6.45414E-03	1.64244	
6.45580E-03	1.75966	
6.45787E-03	1.91764	
6.45794E-03	1.92331	
6.45991E-03	2.08519	
6.46173E-03	2.24721	
6.46192E-03	2.26404	
6.46394E-03	2.45656	
6.46553E-03	2.61944	
6.46596E-03	2.66373	
6.46798E-03	2.88711	
6.46932E-03	3.04777	
6.47002E-03	3.13146	
6.47213E-03	3.40265	
6.47293E-03	3.51439	
6.47423E-03	3.6961	
6.47633E-03	4.01372	
6.47653E-03	4.04647	
6.47843E-03	4.35783	
6.48013E-03	4.65968	
6.48053E-03	4.73076	
6.48254E-03	5.11673	
6.48373E-03	5.3647	
6.48455E-03	5.53395	
6.48655E-03	5.98379	
6.48856E-03	6.47446	
6.48936E-03	6.68567	
6.49057E-03	7.00448	
6.49218E-03	7.4645	
6.49262E-03	7.59093	
6.49469E-03	8.23488	
6.49499E-03	8.33778	
6.49676E-03	8.9368	
6.49781E-03	9.32471	
6.49883E-03	9.70264	
6.50073E-03	10.4719	
6.50090E-03	10.5388	
6.50294E-03	11.4404	
6.50371E-03	11.8127	
6.50493E-03	12.3982	
6.50669E-03	13.3277	
6.50692E-03	13.4439	
6.50890E-03	14.5875	
6.50968E-03	15.0743	
6.51089E-03	15.8396	
6.51266E-03	17.0597	
6.51288E-03	17.2123	
6.51464E-03	18.5522	
6.51486E-03	18.7198	
6.51685E-03	20.3776	
6.51729E-03	20.7833	
6.51884E-03	22.2039	
6.51994E-03	23.3231	
6.52083E-03	24.2189	
6.52259E-03	26.1984	
6.52281E-03	26.4459	
6.52436E-03	28.3528	
6.52458E-03	28.6253	
6.52613E-03	30.7096	
6.52624E-03	30.8585	
6.52789E-03	33.2949	
6.52955E-03	35.9551	
6.52999E-03	36.7306	
6.53120E-03	38.8643	
6.53181E-03	40.0335	
6.53286E-03	42.0539	
6.53363E-03	43.6883	
6.53451E-03	45.557	
6.53545E-03	47.7389	
6.53617E-03	49.4081	
6.53728E-03	52.2328	
6.53783E-03	53.6457	
6.53904E-03	57.069	
6.53948E-03	58.3143	
6.54070E-03	62.0904	
6.54114E-03	63.464	
6.54235E-03	67.6127	
6.54263E-03	68.5559	
6.54401E-03	73.7147	
6.54412E-03	74.1276	
6.54561E-03	80.2283	
6.54567E-03	80.4757	
6.54710E-03	86.9117	
6.54732E-03	87.9964	
6.54859E-03	94.2356	
6.54898E-03	96.3159	
6.55008E-03	102.262	
6.55063E-03	105.518	
6.55157E-03	111.054	
6.55229E-03	115.689	
6.55306E-03	120.681	
6.55395E-03	126.918	
6.55455E-03	131.208	
6.55560E-03	139.294	
6.55604E-03	142.7	
6.55737E-03	153.84	
6.55759E-03	155.697	
6.55919E-03	170.395	
6.55924E-03	170.902	
6.56090E-03	187.468	
6.56101E-03	188.662	
6.56256E-03	205.38	
6.56344E-03	215.6	
6.56421E-03	224.544	
6.56650E-03	252.777	
6.56987E-03	296.158	
6.57147E-03	316.778	
6.57158E-03	318.199	
6.57307E-03	336.261	
6.57349E-03	341.276	
6.57467E-03	354.099	
6.57539E-03	361.849	
6.57587E-03	366.276	
6.57680E-03	374.745	
6.57707E-03	376.843	
6.57796E-03	383.552	
6.57828E-03	385.459	
6.57912E-03	390.513	
6.57934E-03	391.461	
6.58000E-03	394.302	
6.58028E-03	395.485	
6.58108E-03	397.488	
6.58143E-03	398.383	
6.58215E-03	398.979	
6.58242E-03	399.201	
6.58349E-03	398.403	
6.58359E-03	398.165	
6.58477E-03	395.23	
6.58502E-03	394.185	
6.58606E-03	389.824	
6.58649E-03	387.361	
6.58734E-03	382.431	
6.58798E-03	377.823	
6.58905E-03	370.005	
6.59021E-03	360.083	
6.59076E-03	355.356	
6.59333E-03	330.811	
6.59617E-03	302.426	
6.59833E-03	280.935	
6.59899E-03	274.325	
6.60031E-03	261.888	
6.60131E-03	252.564	
6.60230E-03	243.886	
6.60363E-03	232.318	
6.60429E-03	227.012	
6.60594E-03	213.751	
6.60628E-03	211.341	
6.60760E-03	201.704	
6.60826E-03	196.886	
6.60892E-03	192.481	
6.61003E-03	185.141	
6.61025E-03	183.786	
6.61157E-03	175.655	
6.61180E-03	174.301	
6.61356E-03	164.308	
6.61533E-03	155.104	
6.61555E-03	154.044	
6.61709E-03	146.627	
6.61754E-03	144.674	
6.61886E-03	138.817	
6.62041E-03	132.518	
6.62063E-03	131.618	
6.62195E-03	126.637	
6.62239E-03	124.977	
6.62350E-03	121.161	
6.62438E-03	118.11	
6.62504E-03	116.014	
6.62637E-03	111.822	
6.62659E-03	111.181	
6.62813E-03	106.696	
6.62836E-03	106.056	
6.63034E-03	100.758	
6.63045E-03	100.487	
6.63211E-03	96.4244	
6.63233E-03	95.8829	
6.63387E-03	92.455	
6.63531E-03	89.2727	
6.63564E-03	88.6199	
6.63741E-03	85.1389	
6.63829E-03	83.3989	
6.63917E-03	81.846	
6.64127E-03	78.1589	
6.64182E-03	77.2897	
6.64425E-03	73.4664	
6.64447E-03	73.1539	
6.64635E-03	70.4983	
6.64723E-03	69.2488	
6.64834E-03	67.8395	
6.65021E-03	65.4444	
6.65132E-03	64.1688	
6.65320E-03	62.001	
6.65430E-03	60.8397	
6.65601E-03	59.0402	
6.65728E-03	57.8327	
6.65965E-03	55.5759	
6.66026E-03	55.0585	
6.66330E-03	52.4722	
6.66335E-03	52.4299	
6.66650E-03	50.0196	
6.66694E-03	49.6814	
6.66965E-03	47.814	
6.67064E-03	47.1281	
6.67279E-03	45.7834	
6.67439E-03	44.7838	
6.67594E-03	43.9048	
6.67815E-03	42.6495	
6.67908E-03	42.1636	
6.68190E-03	40.7064	
6.68223E-03	40.55	
6.68538E-03	39.0649	
6.68571E-03	38.9086	
6.68852E-03	37.7196	
6.69150E-03	36.461	
6.69167E-03	36.3997	
6.69482E-03	35.2346	
6.69730E-03	34.315	
6.69923E-03	33.6833	
6.70365E-03	32.2397	
6.70806E-03	30.9716	
6.71027E-03	30.3376	
6.71248E-03	29.7785	
6.71690E-03	28.6605	
6.72131E-03	27.6688	
6.72352E-03	27.173	
6.72573E-03	26.7306	
6.73014E-03	25.846	
6.73456E-03	25.0527	
6.73677E-03	24.6562	
6.73898E-03	24.2988	
6.74339E-03	23.5841	
6.74781E-03	22.9475	
6.75222E-03	22.3111	
6.75443E-03	22.0304	
6.76106E-03	21.1888	
6.76768E-03	20.4421	
6.76989E-03	20.1933	
6.77430E-03	19.749	
6.77872E-03	19.3048	
6.78093E-03	19.1054	
6.78755E-03	18.5076	
6.79418E-03	17.9815	
6.80080E-03	17.4555	
6.80742E-03	16.9928	
6.81074E-03	16.7615	
6.81405E-03	16.5552	
6.81846E-03	16.2801	
6.82178E-03	16.0737	
6.82730E-03	15.7675	
6.83558E-03	15.3081	
6.83613E-03	15.2815	
6.84386E-03	14.9089	
6.85158E-03	14.5365	
6.85931E-03	14.2127	
6.86704E-03	13.8889	
6.86732E-03	13.8773	
6.87532E-03	13.5835	
6.88360E-03	13.2796	
6.89188E-03	13.0121	
6.90016E-03	12.7446	
6.90844E-03	12.5077	
6.91672E-03	12.2709	
6.92086E-03	12.1659	
6.93328E-03	11.8511	
6.93466E-03	11.8161	
6.94432E-03	11.6	
6.95536E-03	11.3531	
6.96640E-03	11.1367	
6.97744E-03	10.9203	
6.98848E-03	10.73	
6.99952E-03	10.5396	
7.01056E-03	10.3756	
7.02160E-03	10.2116	
7.03264E-03	10.0476	
7.04920E-03	9.83937	
7.06576E-03	9.63117	
7.08232E-03	9.45272	
7.09888E-03	9.27429	
7.11544E-03	9.11969	
7.13200E-03	8.96511	
7.14856E-03	8.82989	
7.16512E-03	8.69469	
7.17616E-03	8.617	
7.19824E-03	8.46165	
7.20928E-03	8.38397	
7.22032E-03	8.31813	
7.24240E-03	8.18645	
7.26448E-03	8.05477	
7.28656E-03	7.9464	
7.30864E-03	7.83803	
7.33072E-03	7.72966	
7.35280E-03	7.64007	
7.37488E-03	7.55049	
7.39696E-03	7.46091	
7.41904E-03	7.3866	
7.44112E-03	7.3123	
7.46320E-03	7.238	
7.47424E-03	7.20086	
7.48528E-03	7.17019	
7.51840E-03	7.07822	
7.55152E-03	6.98625	
7.56256E-03	6.95559	
7.58464E-03	6.90518	
7.61776E-03	6.82958	
7.65088E-03	6.75398	
7.66192E-03	6.72878	
7.68400E-03	6.6874	
7.71712E-03	6.62533	
7.75024E-03	6.56327	
7.77232E-03	6.52189	
7.81648E-03	6.45415	
7.86064E-03	6.38641	
7.90480E-03	6.31868	
7.94896E-03	6.26371	
7.99312E-03	6.20875	
8.03728E-03	6.15379	
8.05936E-03	6.12631	
8.08144E-03	6.10415	
8.12560E-03	6.05984	
8.16976E-03	6.01553	
8.21392E-03	5.97122	
8.25808E-03	5.92691	
8.30224E-03	5.89169	
8.36848E-03	5.83885	
8.43472E-03	5.78602	
8.50096E-03	5.73319	
8.56720E-03	5.691	
8.63344E-03	5.64881	
8.69968E-03	5.60661	
8.74384E-03	5.57849	
8.78800E-03	5.55036	
8.81008E-03	5.5363	
8.83216E-03	5.52496	
8.87632E-03	5.50227	
8.92048E-03	5.47958	
8.97568E-03	5.45122	
9.00880E-03	5.43421	
9.04192E-03	5.4172	
9.06952E-03	5.40302	
9.09436E-03	5.39027	
9.11920E-03	5.37751	
9.13576E-03	5.36901	
9.15232E-03	5.36051	
9.16888E-03	5.35201	
9.18544E-03	5.34351	
9.20200E-03	5.33501	
9.21856E-03	5.32652	
9.23098E-03	5.32108	
9.24340E-03	5.31564	
9.25582E-03	5.3102	
9.26824E-03	5.30476	
9.27755E-03	5.30068	
9.28687E-03	5.29661	
9.29618E-03	5.29254	
9.30550E-03	5.28847	
9.31171E-03	5.28576	
9.32047E-03	5.28194	
9.32811E-03	5.27861	
9.33576E-03	5.27529	
9.34340E-03	5.27197	
9.34850E-03	5.26975	
9.35359E-03	5.26755	
9.35869E-03	5.26534	
9.36379E-03	5.26314	
9.36888E-03	5.26094	
9.37398E-03	5.25875	
9.37908E-03	5.25656	
9.38354E-03	5.25465	
9.38799E-03	5.25275	
9.39245E-03	5.25085	
9.39691E-03	5.24896	
9.40053E-03	5.24743	
9.40415E-03	5.24591	
9.40776E-03	5.2444	
9.41138E-03	5.2429	
9.41499E-03	5.24141	
9.41854E-03	5.23995	
9.42204E-03	5.23853	
9.42438E-03	5.23759	
9.42672E-03	5.23666	
9.42906E-03	5.23573	
9.43139E-03	5.23482	
9.43373E-03	5.23392	
9.43586E-03	5.2331	
9.43777E-03	5.23238	
9.43968E-03	5.23167	
9.44159E-03	5.23098	
9.44351E-03	5.23029	
9.44542E-03	5.22962	
9.44733E-03	5.22896	
9.44924E-03	5.22833	
9.45094E-03	5.22778	
9.45243E-03	5.22732	
9.45392E-03	5.22687	
9.45541E-03	5.22644	
9.45689E-03	5.22603	
9.45838E-03	5.22564	
9.45987E-03	5.22527	
9.46136E-03	5.22494	
9.46263E-03	5.22468	
9.46422E-03	5.22439	
9.46582E-03	5.22415	
9.46741E-03	5.22396	
9.46847E-03	5.22387	
9.46954E-03	5.22382	
9.47060E-03	5.2238	
9.47156E-03	5.22382	
9.47251E-03	5.22387	
9.47347E-03	5.22397	
9.47442E-03	5.22411	
9.47538E-03	5.2243	
9.47634E-03	5.22455	
9.47729E-03	5.22486	
9.47825E-03	5.22525	
9.47899E-03	5.22561	
9.47974E-03	5.22603	
9.48048E-03	5.2265	
9.48122E-03	5.22705	
9.48197E-03	5.22768	
9.48271E-03	5.2284	
9.48346E-03	5.22921	
9.48420E-03	5.23014	
9.48478E-03	5.23096	
9.48537E-03	5.23187	
9.48595E-03	5.23288	
9.48654E-03	5.234	
9.48712E-03	5.23524	
9.48771E-03	5.23662	
9.48829E-03	5.23816	
9.48888E-03	5.23988	
9.48935E-03	5.24144	
9.48983E-03	5.24315	
9.49031E-03	5.24503	
9.49079E-03	5.24711	
9.49127E-03	5.2494	
9.49174E-03	5.25194	
9.49222E-03	5.25477	
9.49270E-03	5.25792	
9.49307E-03	5.26062	
9.49334E-03	5.26274	
9.49344E-03	5.26374	
9.49382E-03	5.26755	
9.49419E-03	5.27168	
9.49456E-03	5.27618	
9.49493E-03	5.28111	
9.49530E-03	5.28653	
9.49567E-03	5.29253	
9.49598E-03	5.29801	
9.49629E-03	5.30403	
9.49660E-03	5.31067	
9.49691E-03	5.31805	
9.49714E-03	5.32414	
9.49737E-03	5.33079	
9.49760E-03	5.33807	
9.49783E-03	5.34609	
9.49806E-03	5.35496	
9.49826E-03	5.36315	
9.49849E-03	5.3741	
9.49867E-03	5.38318	
9.49884E-03	5.39311	
9.49902E-03	5.40401	
9.49919E-03	5.416	
9.49937E-03	5.42923	
9.49950E-03	5.44029	
9.49954E-03	5.44414	
9.49972E-03	5.46159	
9.49989E-03	5.4808	
9.50006E-03	5.50067	
9.50020E-03	5.51956	
9.50034E-03	5.54008	
9.50049E-03	5.5624	
9.50063E-03	5.58669	
9.50078E-03	5.61312	
9.50092E-03	5.64189	
9.50106E-03	5.6732	
9.50120E-03	5.706	
9.50135E-03	5.74663	
9.50149E-03	5.78913	
9.50162E-03	5.83155	
9.50175E-03	5.87525	
9.50188E-03	5.92201	
9.50201E-03	5.97203	
9.50214E-03	6.02547	
9.50222E-03	6.06307	
9.50239E-03	6.14328	
9.50256E-03	6.23044	
9.50273E-03	6.32489	
9.50290E-03	6.42693	
9.50309E-03	6.55298	
9.50327E-03	6.68877	
9.50346E-03	6.83446	
9.50365E-03	6.99003	
9.50384E-03	7.15534	
9.50400E-03	7.31077	
9.50421E-03	7.5155	
9.50423E-03	7.52912	
9.50442E-03	7.73354	
9.50474E-03	8.0771	
9.50525E-03	8.66232	
9.50582E-03	9.32787	
9.50620E-03	9.73268	
9.50644E-03	9.9699	
9.50674E-03	10.2431	
9.50678E-03	10.2694	
9.50695E-03	10.3956	
9.50715E-03	10.525	
9.50736E-03	10.6322	
9.50757E-03	10.714	
9.50776E-03	10.7618	
9.50781E-03	10.768	
9.50800E-03	10.7841	
9.50808E-03	10.7776	
9.50824E-03	10.7609	
9.50843E-03	10.7145	
9.50864E-03	10.6342	
9.50885E-03	10.5284	
9.50905E-03	10.4005	
9.50916E-03	10.3256	
9.50926E-03	10.2471	
9.50956E-03	9.97547	
9.50980E-03	9.7395	
9.51018E-03	9.33675	
9.51052E-03	8.94673	
9.51084E-03	8.5746	
9.51126E-03	8.08864	
9.51158E-03	7.74538	
9.51179E-03	7.52736	
9.51200E-03	7.31954	
9.51223E-03	7.10455	
9.51228E-03	7.05358	
9.51241E-03	6.94272	
9.51260E-03	6.79205	
9.51279E-03	6.65126	
9.51298E-03	6.52034	
9.51310E-03	6.43846	
9.51325E-03	6.3464	
9.51340E-03	6.26018	
9.51355E-03	6.17961	
9.51370E-03	6.10445	
9.51378E-03	6.06447	
9.51384E-03	6.03586	
9.51399E-03	5.97402	
9.51414E-03	5.91684	
9.51429E-03	5.86405	
9.51443E-03	5.81702	
9.51458E-03	5.77358	
9.51472E-03	5.73347	
9.51486E-03	5.69646	
9.51501E-03	5.66231	
9.51515E-03	5.63082	
9.51529E-03	5.60177	
9.51544E-03	5.57496	
9.51548E-03	5.56763	
9.51558E-03	5.55163	
9.51572E-03	5.53078	
9.51588E-03	5.50962	
9.51601E-03	5.49407	
9.51620E-03	5.47283	
9.51639E-03	5.45382	
9.51658E-03	5.43676	
9.51678E-03	5.4214	
9.51697E-03	5.40755	
9.51716E-03	5.39501	
9.51735E-03	5.38362	
9.51754E-03	5.37324	
9.51773E-03	5.36374	
9.51794E-03	5.35443	
9.51817E-03	5.34485	
9.51840E-03	5.33611	
9.51863E-03	5.32811	
9.51886E-03	5.32075	
9.51909E-03	5.31394	
9.51940E-03	5.30561	
9.51971E-03	5.29802	
9.52002E-03	5.29105	
9.52032E-03	5.28462	
9.52039E-03	5.28339	
9.52070E-03	5.2786	
9.52107E-03	5.27339	
9.52144E-03	5.26868	
9.52181E-03	5.26439	
9.52218E-03	5.26048	
9.52256E-03	5.25689	
9.52293E-03	5.25359	
9.52330E-03	5.25054	
9.52378E-03	5.24696	
9.52426E-03	5.2437	
9.52473E-03	5.24072	
9.52521E-03	5.23799	
9.52569E-03	5.23548	
9.52617E-03	5.23316	
9.52665E-03	5.23102	
9.52713E-03	5.22902	
9.52771E-03	5.22677	
9.52829E-03	5.2247	
9.52888E-03	5.22279	
9.52946E-03	5.22101	
9.53005E-03	5.21936	
9.53063E-03	5.21783	
9.53122E-03	5.21639	
9.53180E-03	5.21503	
9.53254E-03	5.21343	
9.53329E-03	5.21194	
9.53403E-03	5.21055	
9.53478E-03	5.20924	
9.53552E-03	5.20802	
9.53626E-03	5.20686	
9.53701E-03	5.20577	
9.53775E-03	5.20474	
9.53871E-03	5.20348	
9.53966E-03	5.2023	
9.54062E-03	5.20118	
9.54157E-03	5.20012	
9.54253E-03	5.19911	
9.54349E-03	5.19815	
9.54444E-03	5.19723	
9.54540E-03	5.19634	
9.54646E-03	5.1954	
9.54753E-03	5.19449	
9.54859E-03	5.19361	
9.55018E-03	5.19235	
9.55178E-03	5.19115	
9.55337E-03	5.18999	
9.55459E-03	5.18913	
9.55598E-03	5.18819	
9.55737E-03	5.18726	
9.55875E-03	5.18636	
9.56014E-03	5.18548	
9.56222E-03	5.1842	
9.56430E-03	5.18294	
9.56588E-03	5.18201	
9.56767E-03	5.18098	
9.56945E-03	5.17996	
9.57124E-03	5.17896	
9.57302E-03	5.17797	
9.57481E-03	5.177	
9.57748E-03	5.17555	
9.57927E-03	5.1746	
9.58156E-03	5.17339	
9.58386E-03	5.1722	
9.58615E-03	5.17101	
9.58845E-03	5.16983	
9.59074E-03	5.16867	
9.59304E-03	5.16751	
9.59648E-03	5.16578	
9.60013E-03	5.16396	
9.60389E-03	5.1621	
9.60764E-03	5.16026	
9.61140E-03	5.15842	
9.61515E-03	5.15659	
9.61891E-03	5.15477	
9.62266E-03	5.15296	
9.62642E-03	5.15115	
9.63017E-03	5.14935	
9.63518E-03	5.14695	
9.64019E-03	5.14456	
9.64520E-03	5.14217	
9.65021E-03	5.13979	
9.65521E-03	5.13741	
9.66064E-03	5.13484	
9.66648E-03	5.13208	
9.66773E-03	5.13149	
9.67232E-03	5.1296	
9.67816E-03	5.1272	
9.68359E-03	5.12498	
9.69110E-03	5.12191	
9.69861E-03	5.11884	
9.70612E-03	5.11577	
9.71363E-03	5.11271	
9.72114E-03	5.10964	
9.73116E-03	5.10556	
9.74117E-03	5.10148	
9.75119E-03	5.09741	
9.76120E-03	5.09333	
9.77122E-03	5.08926	
9.78123E-03	5.08519	
9.79458E-03	5.07976	
9.80794E-03	5.07434	
9.82129E-03	5.06892	
9.83464E-03	5.0635	
9.84800E-03	5.05808	
9.86803E-03	5.04995	
9.88806E-03	5.04182	
9.90808E-03	5.0337	
9.94147E-03	5.02015	
9.96817E-03	5.00932	
9.99488E-03	4.99849	
1.00299E-02	4.98429	
1.00650E-02	4.97008	
1.01000E-02	4.95587	
1.01526E-02	4.93457	
1.02051E-02	4.91326	
1.02752E-02	4.88486	
1.03453E-02	4.85645	
1.04154E-02	4.82805	
1.04854E-02	4.79964	
1.05555E-02	4.77124	
1.06606E-02	4.72863	
1.07658E-02	4.68603	
1.08358E-02	4.65763	
1.09760E-02	4.59264	
1.11162E-02	4.52766	
1.12563E-02	4.46267	
1.13264E-02	4.43018	
1.13965E-02	4.39241	
1.15016E-02	4.33574	
1.16067E-02	4.27908	
1.16768E-02	4.24131	
1.17118E-02	4.21926	
1.18170E-02	4.1531	
1.19221E-02	4.08694	
1.19571E-02	4.06489	
1.19922E-02	4.03917	
1.20622E-02	3.98773	
1.21323E-02	3.93629	
1.22024E-02	3.88485	
1.22725E-02	3.82506	
1.23075E-02	3.79516	
1.23776E-02	3.73537	
1.24126E-02	3.70547	
1.24477E-02	3.67103	
1.25178E-02	3.60215	
1.25878E-02	3.53328	
1.26579E-02	3.4547	
1.27280E-02	3.37613	
1.27981E-02	3.28708	
1.28506E-02	3.22029	
1.28682E-02	3.19803	
1.29032E-02	3.14745	
1.29558E-02	3.07157	
1.29908E-02	3.02099	
1.30083E-02	2.99258	
1.30609E-02	2.90736	
1.30959E-02	2.85054	
1.31134E-02	2.81905	
1.31485E-02	2.75605	
1.31835E-02	2.69306	
1.32186E-02	2.62323	
1.32536E-02	2.5534	
1.32711E-02	2.51848	
1.32886E-02	2.48019	
1.33237E-02	2.40362	
1.33412E-02	2.36533	
1.33587E-02	2.32369	
1.33981E-02	2.23	
1.34113E-02	2.19877	
1.34376E-02	2.1305	
1.34638E-02	2.06224	
1.34770E-02	2.02811	
1.34901E-02	1.99132	
1.35164E-02	1.91776	
1.35295E-02	1.88098	
1.35427E-02	1.84164	
1.35690E-02	1.76297	
1.35812E-02	1.72626	
1.35935E-02	1.68708	
1.36180E-02	1.60872	
1.36303E-02	1.56955	
1.36425E-02	1.5278	
1.36671E-02	1.44432	
1.36811E-02	1.39662	
1.36951E-02	1.34629	
1.37231E-02	1.24566	
1.37512E-02	1.14005	
1.37652E-02	1.08726	
1.37722E-02	1.05975	
1.37932E-02	0.977237	
1.38072E-02	0.922235	
1.38142E-02	0.893817	
1.38353E-02	0.808576	
1.38563E-02	0.723351	
1.38773E-02	0.637225	
1.38983E-02	0.55112	
1.39194E-02	0.465037	
1.39334E-02	0.409235	
1.39439E-02	0.367393	
1.39474E-02	0.353945	
1.39632E-02	0.293446	
1.39684E-02	0.274143	
1.39763E-02	0.2452	
1.39842E-02	0.217482	
1.39868E-02	0.208247	
1.39960E-02	0.177349	
1.40000E-02	0.164727	
1.40039E-02	0.152112	
1.40105E-02	0.132043	
1.40157E-02	0.116717	
1.40159E-02	0.116079	
1.40214E-02	0.100919	
1.40258E-02	0.0893869	
1.40303E-02	0.0781574	
1.40315E-02	0.0753033	
1.40341E-02	0.0690805	
1.40372E-02	0.0621696	
1.40402E-02	0.0555857	
1.40430E-02	0.0500033	
1.40457E-02	0.0447137	
1.40473E-02	0.0419031	
1.40479E-02	0.0407002	
1.40503E-02	0.0365192	
1.40525E-02	0.032934	
1.40543E-02	0.0302177	
1.40560E-02	0.0276404	
1.40575E-02	0.0255017	
1.40591E-02	0.0234752	
1.40606E-02	0.0215637	
1.40618E-02	0.0202072	
1.40632E-02	0.0185623	
1.40639E-02	0.0178752	
1.40643E-02	0.0174184	
1.40654E-02	0.0163395	
1.40665E-02	0.015325	
1.40676E-02	0.0143755	
1.40684E-02	0.0137068	
1.40693E-02	0.0130759	
1.40701E-02	0.012483	
1.40709E-02	0.011929	
1.40716E-02	0.0115137	
1.40722E-02	0.0111239	
1.40729E-02	0.0107596	
1.40735E-02	0.0104211	
1.40742E-02	0.0101087	
1.40748E-02	0.00984535	
1.40754E-02	0.0096148	
1.40759E-02	0.00940479	
1.40765E-02	0.00921537	
1.40771E-02	0.00904683	
1.40775E-02	0.00894614	
1.40780E-02	0.00881853	
1.40784E-02	0.00875213	
1.40788E-02	0.00866486	
1.40793E-02	0.00860497	
1.40797E-02	0.00855614	
1.40801E-02	0.00851841	
1.40805E-02	0.00849189	
1.40809E-02	0.00847661	
1.40813E-02	0.00847265	
1.40817E-02	0.00848009	
1.40821E-02	0.00849897	
1.40825E-02	0.00852939	
1.40830E-02	0.00857139	
1.40834E-02	0.00862508	
1.40838E-02	0.00869048	
1.40842E-02	0.0087677	
1.40846E-02	0.00885679	
1.40850E-02	0.00895783	
1.40854E-02	0.00907089	
1.40858E-02	0.00919604	
1.40862E-02	0.0093333	
1.40868E-02	0.00954616	
1.40874E-02	0.00978316	
1.40880E-02	0.0100446	
1.40885E-02	0.0103305	
1.40891E-02	0.0106414	
1.40897E-02	0.0109772	
1.40903E-02	0.0113384	
1.40908E-02	0.0117249	
1.40914E-02	0.0121372	
1.40915E-02	0.0121997	
1.40920E-02	0.012577	
1.40926E-02	0.0130891	
1.40934E-02	0.0137304	
1.40941E-02	0.0144159	
1.40948E-02	0.0151458	
1.40956E-02	0.0159206	
1.40963E-02	0.0167407	
1.40971E-02	0.0177061	
1.40980E-02	0.0187286	
1.40988E-02	0.0198091	
1.40999E-02	0.0213412	
1.41010E-02	0.0230641	
1.41020E-02	0.0246355	
1.41030E-02	0.0262958	
1.41043E-02	0.0286495	
1.41056E-02	0.0311663	
1.41059E-02	0.0318333	
1.41067E-02	0.0333931	
1.41079E-02	0.0358591	
1.41094E-02	0.0393522	
1.41109E-02	0.0430852	
1.41125E-02	0.0471731	
1.41142E-02	0.051877	
1.41157E-02	0.0562871	
1.41159E-02	0.0568948	
1.41176E-02	0.0622389	
1.41193E-02	0.0681028	
1.41213E-02	0.074934	
1.41232E-02	0.0822142	
1.41251E-02	0.0899547	
1.41257E-02	0.0926018	
1.41272E-02	0.0990791	
1.41293E-02	0.108475	
1.41313E-02	0.118443	
1.41334E-02	0.129002	
1.41354E-02	0.140172	
1.41375E-02	0.151972	
1.41397E-02	0.16537	
1.41402E-02	0.168723	
1.41430E-02	0.186688	
1.41457E-02	0.205907	
1.41484E-02	0.226433	
1.41508E-02	0.245654	
1.41510E-02	0.246747	
1.41535E-02	0.268295	
1.41561E-02	0.291115	
1.41586E-02	0.315255	
1.41620E-02	0.34959	
1.41649E-02	0.380512	
1.41677E-02	0.41335	
1.41706E-02	0.448188	
1.41734E-02	0.485099	
1.41738E-02	0.490541	
1.41773E-02	0.537728	
1.41805E-02	0.586388	
1.41827E-02	0.620625	
1.41838E-02	0.638269	
1.41871E-02	0.693559	
1.41904E-02	0.752447	
1.41913E-02	0.769159	
1.41937E-02	0.81513	
1.41971E-02	0.885419	
1.41997E-02	0.940463	
1.42007E-02	0.962298	
1.42042E-02	1.04433	
1.42078E-02	1.13182	
1.42081E-02	1.13988	
1.42113E-02	1.22519	
1.42149E-02	1.32603	
1.42165E-02	1.37329	
1.42186E-02	1.43631	
1.42223E-02	1.55411	
1.42249E-02	1.64394	
1.42260E-02	1.67988	
1.42296E-02	1.81417	
1.42333E-02	1.9575	
1.42375E-02	2.13319	
1.42417E-02	2.32243	
1.42459E-02	2.52631	
1.42501E-02	2.74591	
1.42543E-02	2.98253	
1.42585E-02	3.23743	
1.42628E-02	3.51217	
1.42670E-02	3.80825	
1.42712E-02	4.12751	
1.42754E-02	4.47177	
1.42796E-02	4.84321	
1.42838E-02	5.24403	
1.42880E-02	5.67682	
1.42922E-02	6.14423	
1.42964E-02	6.64938	
1.42978E-02	6.8314	
1.43006E-02	7.19551	
1.43034E-02	7.58938	
1.43048E-02	7.78634	
1.43090E-02	8.4258	
1.43132E-02	9.11841	
1.43146E-02	9.36857	
1.43174E-02	9.86897	
1.43202E-02	10.4116	
1.43216E-02	10.6829	
1.43258E-02	11.5661	
1.43300E-02	12.5252	
1.43314E-02	12.8725	
1.43342E-02	13.5673	
1.43370E-02	14.3227	
1.43384E-02	14.7005	
1.43426E-02	15.9335	
1.43468E-02	17.2763	
1.43482E-02	17.764	
1.43511E-02	18.7394	
1.43539E-02	19.8029	
1.43553E-02	20.3348	
1.43595E-02	22.0754	
1.43637E-02	23.9757	
1.43651E-02	24.6675	
1.43679E-02	26.0513	
1.43707E-02	27.5634	
1.43721E-02	28.3195	
1.43763E-02	30.7989	
1.43805E-02	33.5099	
1.43819E-02	34.4978	
1.43847E-02	36.4741	
1.43875E-02	38.6344	
1.43889E-02	39.7148	
1.43931E-02	43.2564	
1.43973E-02	47.1245	
1.43987E-02	48.531	
1.44015E-02	51.3444	
1.44043E-02	54.4093	
1.44057E-02	55.942	
1.44099E-02	60.9407	
1.44141E-02	66.3627	
1.44162E-02	69.2932	
1.44183E-02	72.2239	
1.44225E-02	78.5346	
1.44267E-02	85.301	
1.44288E-02	88.9108	
1.44309E-02	92.5209	
1.44366E-02	102.912	
1.44441E-02	117.372	
1.44471E-02	123.33	
1.44530E-02	135.246	
1.44560E-02	141.203	
1.44590E-02	146.903	
1.44617E-02	152.067	
1.44629E-02	154.238	
1.44669E-02	161.116	
1.44671E-02	161.483	
1.44708E-02	167.225	
1.44711E-02	167.71	
1.44747E-02	172.492	
1.44752E-02	173.047	
1.44787E-02	176.803	
1.44792E-02	177.364	
1.44800E-02	177.975	
1.44834E-02	180.623	
1.44836E-02	180.745	
1.44868E-02	182.23	
1.44881E-02	182.804	
1.44914E-02	183.234	
1.44926E-02	183.393	
1.44959E-02	182.92	
1.45002E-02	181.166	
1.45009E-02	180.879	
1.45059E-02	177.41	
1.45063E-02	177.085	
1.45109E-02	172.778	
1.45143E-02	169.025	
1.45159E-02	167.293	
1.45192E-02	163.285	
1.45305E-02	148.576	
1.45333E-02	144.898	
1.45361E-02	141.188	
1.45417E-02	133.768	
1.45445E-02	130.058	
1.45473E-02	126.572	
1.45529E-02	119.601	
1.45585E-02	113.176	
1.45613E-02	109.964	
1.45641E-02	107.047	
1.45697E-02	101.215	
1.45753E-02	95.9714	
1.45781E-02	93.3495	
1.45809E-02	91.0041	
1.45865E-02	86.3139	
1.45921E-02	82.1294	
1.45949E-02	80.0375	
1.45977E-02	78.1722	
1.46033E-02	74.4418	
1.46089E-02	71.114	
1.46118E-02	69.4502	
1.46146E-02	67.9636	
1.46202E-02	64.9905	
1.46258E-02	62.3286	
1.46286E-02	60.9978	
1.46314E-02	59.8032	
1.46370E-02	57.4142	
1.46426E-02	55.2642	
1.46454E-02	54.1893	
1.46482E-02	53.2191	
1.46538E-02	51.2788	
1.46594E-02	49.5227	
1.46622E-02	48.6447	
1.46650E-02	47.8477	
1.46706E-02	46.2538	
1.46734E-02	45.5391	
1.46818E-02	43.3953	
1.46902E-02	41.495	
1.46930E-02	40.8616	
1.46986E-02	39.7332	
1.47043E-02	38.6049	
1.47071E-02	38.1002	
1.47155E-02	36.5861	
1.47239E-02	35.2257	
1.47267E-02	34.7722	
1.47323E-02	33.9541	
1.47379E-02	33.136	
1.47407E-02	32.7667	
1.47491E-02	31.6588	
1.47498E-02	31.5665	
1.47579E-02	30.6107	
1.47624E-02	30.0704	
1.47673E-02	29.556	
1.47799E-02	28.2333	
1.47910E-02	27.2211	
1.47979E-02	26.5865	
1.48020E-02	26.2506	
1.48114E-02	25.4858	
1.48127E-02	25.3936	
1.48225E-02	24.6782	
1.48313E-02	24.0423	
1.48357E-02	23.7651	
1.48470E-02	23.0445	
1.48514E-02	22.7674	
1.48584E-02	22.3753	
1.48724E-02	21.5912	
1.48865E-02	20.9028	
1.48935E-02	20.5586	
1.49005E-02	20.2518	
1.49145E-02	19.6383	
1.49285E-02	19.0819	
1.49425E-02	18.5825	
1.49565E-02	18.0831	
1.49706E-02	17.648	
1.49846E-02	17.2129	
1.49986E-02	16.8308	
1.50126E-02	16.4487	
1.50266E-02	16.1108	
1.50406E-02	15.7728	
1.50476E-02	15.6224	
1.50687E-02	15.1711	
1.50897E-02	14.7774	
1.51107E-02	14.3837	
1.51317E-02	14.0462	
1.51528E-02	13.7088	
1.51738E-02	13.4165	
1.51948E-02	13.1243	
1.52158E-02	12.8691	
1.52334E-02	12.6564	
1.52369E-02	12.6139	
1.52649E-02	12.3198	
1.52929E-02	12.0258	
1.53175E-02	11.8076	
1.53420E-02	11.5893	
1.53542E-02	11.4802	
1.53665E-02	11.387	
1.53910E-02	11.2004	
1.54173E-02	11.0005	
1.54436E-02	10.8319	
1.54699E-02	10.6633	
1.54962E-02	10.4947	
1.55224E-02	10.3528	
1.55619E-02	10.14	
1.55750E-02	10.0691	
1.56013E-02	9.95001	
1.56363E-02	9.79127	
1.56714E-02	9.63253	
1.57064E-02	9.50046	
1.57414E-02	9.3684	
1.57765E-02	9.23635	
1.58115E-02	9.12555	
1.58466E-02	9.01476	
1.58816E-02	8.90397	
1.58991E-02	8.85742	
1.59517E-02	8.71777	
1.60042E-02	8.57813	
1.60568E-02	8.46148	
1.61094E-02	8.34484	
1.61444E-02	8.26707	
1.61619E-02	8.23477	
1.62320E-02	8.10553	
1.63021E-02	7.97631	
1.63722E-02	7.86939	
1.64422E-02	7.76248	
1.64773E-02	7.70903	
1.65123E-02	7.66474	
1.65824E-02	7.57618	
1.66525E-02	7.48762	
1.66875E-02	7.44333	
1.67226E-02	7.40701	
1.67926E-02	7.33436	
1.68627E-02	7.26172	
1.69328E-02	7.18907	
1.69678E-02	7.15937	
1.70730E-02	7.07026	
1.71781E-02	6.98116	
1.72131E-02	6.95146	
1.72832E-02	6.90288	
1.74234E-02	6.80572	
1.75635E-02	6.70856	
1.75986E-02	6.68864	
1.76336E-02	6.66872	
1.77913E-02	6.57909	
1.78438E-02	6.54921	
1.79840E-02	6.46953	
1.81242E-02	6.40323	
1.82643E-02	6.33692	
1.84045E-02	6.27061	
1.85446E-02	6.20431	
1.86848E-02	6.1458	
1.88250E-02	6.08729	
1.89651E-02	6.02879	
1.91053E-02	5.97028	
1.92454E-02	5.91178	
1.93506E-02	5.86791	
1.94557E-02	5.82404	
1.95675E-02	5.77737	
1.96510E-02	5.74254	
1.97345E-02	5.7077	
1.98180E-02	5.67287	
1.98597E-02	5.65545	
1.99478E-02	5.61867	
2.00360E-02	5.5819	
2.01100E-02	5.54567	
2.01840E-02	5.50944	
2.02580E-02	5.47322	
2.03320E-02	5.437	
2.04060E-02	5.40078	
2.04800E-02	5.36457	
2.05540E-02	5.32076	
2.06280E-02	5.27696	
2.07020E-02	5.23317	
2.07760E-02	5.18938	
2.08130E-02	5.1675	
2.08315E-02	5.15407	
2.08870E-02	5.11379	
2.09425E-02	5.07352	
2.09980E-02	5.03325	
2.10535E-02	4.99299	
2.10720E-02	4.97957	
2.11090E-02	4.94665	
2.11645E-02	4.89727	
2.12200E-02	4.8479	
2.12570E-02	4.81499	
2.12755E-02	4.79854	
2.12940E-02	4.77852	
2.13310E-02	4.73848	
2.13680E-02	4.69845	
2.14050E-02	4.65843	
2.14420E-02	4.61842	
2.14790E-02	4.57019	
2.15160E-02	4.52197	
2.15530E-02	4.47376	
2.15715E-02	4.44967	
2.15900E-02	4.42108	
2.16270E-02	4.36393	
2.16640E-02	4.30679	
2.16825E-02	4.27824	
2.17103E-02	4.22797	
2.17380E-02	4.17772	
2.17657E-02	4.1275	
2.17750E-02	4.11076	
2.17935E-02	4.07189	
2.18212E-02	4.01361	
2.18490E-02	3.95536	
2.18768E-02	3.88815	
2.19045E-02	3.82097	
2.19230E-02	3.77621	
2.19322E-02	3.75059	
2.19600E-02	3.67375	
2.19785E-02	3.62255	
2.19970E-02	3.56454	
2.20155E-02	3.50655	
2.20340E-02	3.4486	
2.20525E-02	3.38234	
2.20710E-02	3.31612	
2.20895E-02	3.24994	
2.21080E-02	3.17454	
2.21288E-02	3.08979	
2.21357E-02	3.06156	
2.21496E-02	2.99784	
2.21635E-02	2.93417	
2.21774E-02	2.87055	
2.21913E-02	2.80029	
2.22051E-02	2.7301	
2.22239E-02	2.62629	
2.22384E-02	2.54564	
2.22530E-02	2.4583	
2.22578E-02	2.42922	
2.22648E-02	2.38438	
2.22787E-02	2.29482	
2.22856E-02	2.25007	
2.23004E-02	2.14689	
2.23078E-02	2.09536	
2.23115E-02	2.06761	
2.23226E-02	1.98447	
2.23300E-02	1.92912	
2.23337E-02	1.89935	
2.23448E-02	1.81017	
2.23522E-02	1.75082	
2.23559E-02	1.71893	
2.23670E-02	1.62343	
2.23744E-02	1.5599	
2.23781E-02	1.52604	
2.23892E-02	1.42472	
2.23929E-02	1.39103	
2.24003E-02	1.31993	
2.24114E-02	1.21359	
2.24225E-02	1.10251	
2.24299E-02	1.02868	
2.24373E-02	0.95224	
2.24447E-02	0.876025	
2.24521E-02	0.800058	
2.24595E-02	0.723644	
2.24669E-02	0.647542	
2.24743E-02	0.571791	
2.24757E-02	0.557661	
2.24817E-02	0.498197	
2.24854E-02	0.461821	
2.24891E-02	0.42673	
2.24919E-02	0.4006	
2.24958E-02	0.365118	
2.24974E-02	0.350615	
2.25018E-02	0.313068	
2.25020E-02	0.311353	
2.25057E-02	0.281975	
2.25078E-02	0.265342	
2.25087E-02	0.258758	
2.25116E-02	0.237555	
2.25138E-02	0.222664	
2.25142E-02	0.219956	
2.25164E-02	0.206302	
2.25183E-02	0.195152	
2.25195E-02	0.18864	
2.25201E-02	0.185136	
2.25215E-02	0.177694	
2.25226E-02	0.172413	
2.25242E-02	0.16543	
2.25247E-02	0.163176	
2.25254E-02	0.160115	
2.25264E-02	0.156199	
2.25276E-02	0.152079	
2.25285E-02	0.149118	
2.25294E-02	0.146387	
2.25303E-02	0.143894	
2.25311E-02	0.142085	
2.25318E-02	0.140452	
2.25326E-02	0.138999	
2.25331E-02	0.13803	
2.25336E-02	0.137276	
2.25342E-02	0.136459	
2.25348E-02	0.135769	
2.25351E-02	0.135524	
2.25353E-02	0.135358	
2.25357E-02	0.135052	
2.25362E-02	0.134806	
2.25367E-02	0.134648	
2.25372E-02	0.134579	
2.25377E-02	0.134601	
2.25381E-02	0.134717	
2.25386E-02	0.13489	
2.25389E-02	0.135111	
2.25393E-02	0.135392	
2.25397E-02	0.135734	
2.25401E-02	0.136137	
2.25403E-02	0.136441	
2.25405E-02	0.136686	
2.25407E-02	0.136958	
2.25411E-02	0.137562	
2.25414E-02	0.138184	
2.25418E-02	0.13886	
2.25421E-02	0.13959	
2.25425E-02	0.140376	
2.25428E-02	0.141218	
2.25432E-02	0.142179	
2.25436E-02	0.143239	
2.25440E-02	0.14437	
2.25443E-02	0.145572	
2.25447E-02	0.146847	
2.25451E-02	0.148237	
2.25455E-02	0.149796	
2.25457E-02	0.150528	
2.25459E-02	0.151477	
2.25464E-02	0.153276	
2.25468E-02	0.155167	
2.25472E-02	0.157153	
2.25476E-02	0.159235	
2.25480E-02	0.161413	
2.25486E-02	0.164472	
2.25491E-02	0.16771	
2.25497E-02	0.171203	
2.25499E-02	0.172332	
2.25503E-02	0.175027	
2.25509E-02	0.179083	
2.25514E-02	0.183349	
2.25521E-02	0.188291	
2.25528E-02	0.193985	
2.25535E-02	0.200004	
2.25541E-02	0.206356	
2.25545E-02	0.209711	
2.25549E-02	0.213932	
2.25556E-02	0.220593	
2.25564E-02	0.229952	
2.25573E-02	0.239874	
2.25582E-02	0.250594	
2.25591E-02	0.262636	
2.25598E-02	0.273166	
2.25600E-02	0.275438	
2.25609E-02	0.289165	
2.25619E-02	0.30441	
2.25627E-02	0.31818	
2.25638E-02	0.337584	
2.25650E-02	0.358228	
2.25653E-02	0.365538	
2.25661E-02	0.380324	
2.25670E-02	0.400834	
2.25680E-02	0.422408	
2.25690E-02	0.446363	
2.25693E-02	0.452958	
2.25706E-02	0.485786	
2.25716E-02	0.513094	
2.25727E-02	0.544468	
2.25731E-02	0.555499	
2.25738E-02	0.577747	
2.25749E-02	0.612908	
2.25764E-02	0.662706	
2.25772E-02	0.689183	
2.25776E-02	0.705857	
2.25790E-02	0.758878	
2.25804E-02	0.81529	
2.25809E-02	0.835282	
2.25818E-02	0.875524	
2.25832E-02	0.939653	
2.25846E-02	1.00775	
2.25859E-02	1.08047	
2.25873E-02	1.15761	
2.25883E-02	1.21214	
2.25887E-02	1.23957	
2.25901E-02	1.32677	
2.25915E-02	1.41917	
2.25920E-02	1.45192	
2.25931E-02	1.53096	
2.25947E-02	1.65771	
2.25957E-02	1.73311	
2.25964E-02	1.79374	
2.25981E-02	1.93979	
2.25994E-02	2.06135	
2.25997E-02	2.09626	
2.26014E-02	2.26434	
2.26031E-02	2.44416	
2.26047E-02	2.63747	
2.26064E-02	2.84424	
2.26068E-02	2.89337	
2.26081E-02	3.06623	
2.26097E-02	3.30388	
2.26105E-02	3.4169	
2.26114E-02	3.5588	
2.26131E-02	3.83201	
2.26142E-02	4.02686	
2.26147E-02	4.12475	
2.26164E-02	4.43885	
2.26179E-02	4.73764	
2.26180E-02	4.77514	
2.26199E-02	5.1779	
2.26206E-02	5.35202	
2.26218E-02	5.63585	
2.26234E-02	6.03777	
2.26238E-02	6.13263	
2.26257E-02	6.67218	
2.26262E-02	6.81139	
2.26277E-02	7.25817	
2.26290E-02	7.68192	
2.26296E-02	7.89445	
2.26316E-02	8.58571	
2.26317E-02	8.65716	
2.26335E-02	9.33749	
2.26345E-02	9.76484	
2.26354E-02	10.1545	
2.26373E-02	11.0001	
2.26374E-02	11.0425	
2.26393E-02	12.0091	
2.26401E-02	12.409	
2.26413E-02	13.0605	
2.26428E-02	13.9858	
2.26432E-02	14.204	
2.26451E-02	15.4487	
2.26456E-02	15.7706	
2.26471E-02	16.8033	
2.26484E-02	17.7848	
2.26490E-02	18.2766	
2.26510E-02	19.8792	
2.26512E-02	20.0449	
2.26529E-02	21.6227	
2.26539E-02	22.6138	
2.26549E-02	23.5168	
2.26567E-02	25.4751	
2.26568E-02	25.5733	
2.26587E-02	27.8053	
2.26595E-02	28.7254	
2.26607E-02	30.2233	
2.26623E-02	32.3393	
2.26626E-02	32.8381	
2.26646E-02	35.6615	
2.26650E-02	36.3846	
2.26665E-02	38.7022	
2.26681E-02	41.3435	
2.26685E-02	41.966	
2.26704E-02	45.4589	
2.26713E-02	47.1527	
2.26728E-02	50.0087	
2.26751E-02	54.8854	
2.26766E-02	58.1336	
2.26775E-02	60.0628	
2.26806E-02	67.356	
2.26830E-02	73.0759	
2.26861E-02	80.6711	
2.26891E-02	87.9836	
2.26893E-02	88.2376	
2.26913E-02	93.0107	
2.26922E-02	95.0127	
2.26934E-02	97.5026	
2.26953E-02	101.331	
2.26955E-02	101.728	
2.26974E-02	104.995	
2.26976E-02	105.392	
2.26994E-02	108.13	
2.27000E-02	108.86	
2.27016E-02	110.866	
2.27024E-02	111.556	
2.27039E-02	112.857	
2.27048E-02	113.378	
2.27061E-02	114.08	
2.27072E-02	114.301	
2.27085E-02	114.548	
2.27096E-02	114.411	
2.27105E-02	114.299	
2.27121E-02	113.662	
2.27125E-02	113.524	
2.27146E-02	112.094	
2.27151E-02	111.769	
2.27177E-02	109.326	
2.27184E-02	108.621	
2.27204E-02	106.344	
2.27243E-02	101.166	
2.27271E-02	97.1702	
2.27307E-02	91.9833	
2.27340E-02	87.204	
2.27374E-02	82.4338	
2.27379E-02	81.6404	
2.27407E-02	77.9601	
2.27429E-02	75.0224	
2.27440E-02	73.6796	
2.27463E-02	70.9995	
2.27479E-02	68.9922	
2.27485E-02	68.3786	
2.27507E-02	65.9278	
2.27512E-02	65.316	
2.27529E-02	63.6115	
2.27546E-02	61.9101	
2.27562E-02	60.3341	
2.27579E-02	58.7614	
2.27596E-02	57.3069	
2.27612E-02	55.8555	
2.27629E-02	54.5401	
2.27651E-02	52.7891	
2.27662E-02	51.9148	
2.27677E-02	50.8792	
2.27703E-02	49.0696	
2.27712E-02	48.4242	
2.27729E-02	47.391	
2.27755E-02	45.786	
2.27762E-02	45.328	
2.27781E-02	44.3074	
2.27807E-02	42.8806	
2.27812E-02	42.5752	
2.27845E-02	40.9381	
2.27862E-02	40.1208	
2.27873E-02	39.6324	
2.27903E-02	38.3315	
2.27912E-02	37.9255	
2.27932E-02	37.1223	
2.27962E-02	35.9554	
2.27992E-02	34.9039	
2.28012E-02	34.182	
2.28036E-02	33.4098	
2.28062E-02	32.5796	
2.28080E-02	32.0421	
2.28114E-02	31.0759	
2.28151E-02	30.1057	
2.28169E-02	29.6212	
2.28188E-02	29.1897	
2.28225E-02	28.3277	
2.28243E-02	27.8973	
2.28262E-02	27.5181	
2.28299E-02	26.7608	
2.28317E-02	26.3826	
2.28354E-02	25.7126	
2.28391E-02	25.0436	
2.28410E-02	24.7424	
2.28466E-02	23.8399	
2.28522E-02	23.0355	
2.28541E-02	22.7677	
2.28579E-02	22.2857	
2.28616E-02	21.8042	
2.28635E-02	21.5865	
2.28691E-02	20.9343	
2.28748E-02	20.3449	
2.28806E-02	19.7562	
2.28864E-02	19.2469	
2.28921E-02	18.7381	
2.28979E-02	18.2933	
2.29035E-02	17.8595	
2.29109E-02	17.3546	
2.29146E-02	17.1023	
2.29183E-02	16.8818	
2.29257E-02	16.4412	
2.29294E-02	16.2211	
2.29331E-02	16.0306	
2.29405E-02	15.6501	
2.29442E-02	15.46	
2.29479E-02	15.294	
2.29553E-02	14.9624	
2.29590E-02	14.7968	
2.29627E-02	14.651	
2.29701E-02	14.3596	
2.29738E-02	14.2141	
2.29775E-02	14.0851	
2.29886E-02	13.6984	
2.29997E-02	13.363	
2.30108E-02	13.0278	
2.30219E-02	12.7421	
2.30330E-02	12.4567	
2.30441E-02	12.2106	
2.30552E-02	11.9648	
2.30663E-02	11.7507	
2.30774E-02	11.5368	
2.30913E-02	11.306	
2.31052E-02	11.0755	
2.31144E-02	10.9411	
2.31283E-02	10.7396	
2.31421E-02	10.5651	
2.31567E-02	10.3819	
2.31616E-02	10.3209	
2.31713E-02	10.2164	
2.31879E-02	10.0374	
2.31949E-02	9.96285	
2.32018E-02	9.89941	
2.32157E-02	9.77257	
2.32296E-02	9.6458	
2.32365E-02	9.58243	
2.32434E-02	9.5287	
2.32642E-02	9.36759	
2.32781E-02	9.26024	
2.32851E-02	9.21484	
2.33012E-02	9.10895	
2.33197E-02	8.98797	
2.33290E-02	8.92751	
2.33383E-02	8.87673	
2.33568E-02	8.77522	
2.33753E-02	8.67375	
2.33845E-02	8.62302	
2.33938E-02	8.58007	
2.34122E-02	8.49418	
2.34307E-02	8.40832	
2.34400E-02	8.36541	
2.34585E-02	8.29329	
2.34862E-02	8.18516	
2.35140E-02	8.07707	
2.35418E-02	7.98854	
2.35695E-02	7.90003	
2.35972E-02	7.81155	
2.36065E-02	7.78207	
2.36250E-02	7.73357	
2.36527E-02	7.66083	
2.36805E-02	7.58812	
2.36990E-02	7.53966	
2.37360E-02	7.45905	
2.37730E-02	7.37847	
2.38100E-02	7.29791	
2.38470E-02	7.23185	
2.38840E-02	7.1658	
2.39210E-02	7.09977	
2.39580E-02	7.03376	
2.39950E-02	6.97994	
2.40320E-02	6.92614	
2.40690E-02	6.87234	
2.41060E-02	6.81855	
2.41430E-02	6.76477	
2.41985E-02	6.69795	
2.42540E-02	6.63114	
2.43095E-02	6.56434	
2.43650E-02	6.49755	
2.43835E-02	6.47529	
2.44205E-02	6.43635	
2.44760E-02	6.37795	
2.45246E-02	6.32685	
2.45731E-02	6.27576	
2.46217E-02	6.22467	
2.46703E-02	6.17359	
2.47166E-02	6.12487	
2.47629E-02	6.07614	
2.48093E-02	6.02743	
2.48732E-02	5.96017	
2.49262E-02	5.90452	
2.49791E-02	5.84887	
2.50321E-02	5.79324	
2.50851E-02	5.73762	
2.51380E-02	5.67329	
2.51909E-02	5.60897	
2.52263E-02	5.56611	
2.52616E-02	5.52324	
2.52969E-02	5.48039	
2.53322E-02	5.42966	
2.53674E-02	5.37894	
2.54028E-02	5.32823	
2.54204E-02	5.30287	
2.54557E-02	5.25218	
2.54910E-02	5.19175	
2.55263E-02	5.13133	
2.55616E-02	5.07094	
2.55792E-02	5.04075	
2.55969E-02	5.00493	
2.56410E-02	4.91542	
2.56675E-02	4.86174	
2.56852E-02	4.82597	
2.56940E-02	4.80467	
2.57204E-02	4.74078	
2.57469E-02	4.67693	
2.57734E-02	4.6131	
2.57999E-02	4.53812	
2.58263E-02	4.46318	
2.58440E-02	4.41325	
2.58528E-02	4.38454	
2.58705E-02	4.32716	
2.58881E-02	4.2698	
2.58969E-02	4.24114	
2.59058E-02	4.20846	
2.59234E-02	4.14312	
2.59411E-02	4.07781	
2.59499E-02	4.04517	
2.59587E-02	4.00849	
2.59764E-02	3.93517	
2.59852E-02	3.89854	
2.59951E-02	3.85267	
2.60150E-02	3.761	
2.60249E-02	3.7152	
2.60299E-02	3.68936	
2.60448E-02	3.61192	
2.60597E-02	3.53452	
2.60646E-02	3.50875	
2.60743E-02	3.45248	
2.60889E-02	3.36814	
2.60937E-02	3.34005	
2.61035E-02	3.27816	
2.61174E-02	3.18963	
2.61220E-02	3.16015	
2.61313E-02	3.0951	
2.61449E-02	2.99917	
2.61493E-02	2.96826	
2.61582E-02	2.90021	
2.61714E-02	2.79825	
2.61758E-02	2.76431	
2.61846E-02	2.68914	
2.61979E-02	2.57654	
2.62023E-02	2.53907	
2.62111E-02	2.45744	
2.62199E-02	2.37593	
2.62288E-02	2.28866	
2.62376E-02	2.20151	
2.62464E-02	2.1082	
2.62552E-02	2.01504	
2.62641E-02	1.9154	
2.62729E-02	1.81595	
2.62817E-02	1.7107	
2.62861E-02	1.6582	
2.62905E-02	1.60312	
2.62994E-02	1.49324	
2.63082E-02	1.37872	
2.63126E-02	1.32164	
2.63170E-02	1.26219	
2.63236E-02	1.17327	
2.63281E-02	1.11416	
2.63303E-02	1.08359	
2.63369E-02	0.992158	
2.63435E-02	0.901056	
2.63501E-02	0.810321	
2.63560E-02	0.729855	
2.63616E-02	0.65461	
2.63639E-02	0.62294	
2.63671E-02	0.581015	
2.63717E-02	0.521356	
2.63726E-02	0.509273	
2.63775E-02	0.449262	
2.63782E-02	0.440722	
2.63816E-02	0.400328	
2.63842E-02	0.371221	
2.63852E-02	0.359511	
2.63881E-02	0.329006	
2.63888E-02	0.321996	
2.63910E-02	0.300292	
2.63933E-02	0.278663	
2.63934E-02	0.277388	
2.63955E-02	0.259299	
2.63972E-02	0.244765	
2.63980E-02	0.238722	
2.63990E-02	0.231262	
2.64003E-02	0.22185	
2.64016E-02	0.213312	
2.64024E-02	0.208512	
2.64029E-02	0.20542	
2.64038E-02	0.199976	
2.64048E-02	0.194895	
2.64057E-02	0.190529	
2.64065E-02	0.186968	
2.64067E-02	0.186074	
2.64074E-02	0.183099	
2.64082E-02	0.180377	
2.64089E-02	0.17792	
2.64096E-02	0.175794	
2.64103E-02	0.174038	
2.64106E-02	0.173397	
2.64110E-02	0.172578	
2.64117E-02	0.171405	
2.64124E-02	0.170485	
2.64130E-02	0.169827	
2.64137E-02	0.169444	
2.64141E-02	0.169334	
2.64144E-02	0.16934	
2.64146E-02	0.169367	
2.64150E-02	0.169579	
2.64155E-02	0.169915	
2.64159E-02	0.170376	
2.64163E-02	0.170966	
2.64168E-02	0.171766	
2.64172E-02	0.17254	
2.64176E-02	0.173424	
2.64181E-02	0.174538	
2.64185E-02	0.175793	
2.64189E-02	0.17719	
2.64194E-02	0.178733	
2.64197E-02	0.180087	
2.64198E-02	0.180447	
2.64203E-02	0.182399	
2.64207E-02	0.184504	
2.64212E-02	0.186767	
2.64216E-02	0.18894	
2.64219E-02	0.191246	
2.64223E-02	0.193685	
2.64229E-02	0.197601	
2.64235E-02	0.201831	
2.64241E-02	0.206385	
2.64247E-02	0.210896	
2.64250E-02	0.213965	
2.64252E-02	0.215546	
2.64257E-02	0.220559	
2.64263E-02	0.225854	
2.64268E-02	0.231433	
2.64274E-02	0.237809	
2.64280E-02	0.245603	
2.64287E-02	0.25388	
2.64294E-02	0.262651	
2.64295E-02	0.263888	
2.64300E-02	0.272085	
2.64307E-02	0.282065	
2.64313E-02	0.292586	
2.64320E-02	0.303659	
2.64327E-02	0.315303	
2.64336E-02	0.331741	
2.64339E-02	0.337825	
2.64342E-02	0.34487	
2.64350E-02	0.36156	
2.64358E-02	0.379178	
2.64366E-02	0.397762	
2.64374E-02	0.417341	
2.64382E-02	0.438168	
2.64392E-02	0.467606	
2.64403E-02	0.499028	
2.64409E-02	0.51857	
2.64414E-02	0.532664	
2.64424E-02	0.568659	
2.64433E-02	0.600394	
2.64442E-02	0.63549	
2.64445E-02	0.64437	
2.64455E-02	0.685582	
2.64467E-02	0.739296	
2.64476E-02	0.782021	
2.64482E-02	0.807879	
2.64488E-02	0.840472	
2.64500E-02	0.902951	
2.64512E-02	0.969459	
2.64520E-02	1.01924	
2.64524E-02	1.04036	
2.64536E-02	1.11613	
2.64549E-02	1.20275	
2.64558E-02	1.26652	
2.64562E-02	1.29863	
2.64575E-02	1.40147	
2.64588E-02	1.51124	
2.64593E-02	1.55027	
2.64602E-02	1.62884	
2.64615E-02	1.75449	
2.64628E-02	1.88844	
2.64641E-02	2.03204	
2.64655E-02	2.18501	
2.64663E-02	2.29364	
2.64668E-02	2.34827	
2.64681E-02	2.52273	
2.64694E-02	2.7085	
2.64699E-02	2.77442	
2.64708E-02	2.90697	
2.64721E-02	3.11856	
2.64734E-02	3.34374	
2.64747E-02	3.58445	
2.64760E-02	3.84166	
2.64762E-02	3.87609	
2.64778E-02	4.20918	
2.64787E-02	4.40851	
2.64794E-02	4.56859	
2.64810E-02	4.95658	
2.64813E-02	5.04945	
2.64826E-02	5.3757	
2.64840E-02	5.77738	
2.64842E-02	5.82778	
2.64858E-02	6.31633	
2.64866E-02	6.60881	
2.64873E-02	6.84357	
2.64889E-02	7.41269	
2.64893E-02	7.54895	
2.64905E-02	8.02757	
2.64919E-02	8.61696	
2.64921E-02	8.69084	
2.64937E-02	9.40774	
2.64946E-02	9.8369	
2.64953E-02	10.1814	
2.64969E-02	11.0165	
2.64972E-02	11.2164	
2.64985E-02	11.9185	
2.64999E-02	12.783	
2.65000E-02	12.8914	
2.65016E-02	13.9421	
2.65025E-02	14.5708	
2.65032E-02	15.0752	
2.65048E-02	16.297	
2.65052E-02	16.5892	
2.65064E-02	17.6147	
2.65078E-02	18.8752	
2.65080E-02	19.0331	
2.65096E-02	20.5611	
2.65105E-02	21.4727	
2.65112E-02	22.2038	
2.65128E-02	23.9684	
2.65131E-02	24.3886	
2.65143E-02	25.8622	
2.65158E-02	27.6642	
2.65159E-02	27.8899	
2.65175E-02	30.0588	
2.65184E-02	31.3502	
2.65194E-02	32.7728	
2.65211E-02	35.4108	
2.65212E-02	35.689	
2.65231E-02	38.812	
2.65246E-02	41.5032	
2.65249E-02	42.1373	
2.65274E-02	46.8776	
2.65297E-02	51.4726	
2.65327E-02	57.9389	
2.65334E-02	59.6197	
2.65367E-02	67.027	
2.65389E-02	71.957	
2.65408E-02	76.0707	
2.65411E-02	76.8298	
2.65432E-02	81.1705	
2.65435E-02	81.7601	
2.65451E-02	84.9056	
2.65462E-02	86.9072	
2.65471E-02	88.3752	
2.65482E-02	90.2912	
2.65490E-02	91.409	
2.65500E-02	92.7861	
2.65503E-02	93.1853	
2.65523E-02	95.4782	
2.65525E-02	95.7181	
2.65546E-02	97.4394	
2.65547E-02	97.5552	
2.65569E-02	98.6451	
2.65570E-02	98.6804	
2.65592E-02	99.1068	
2.65599E-02	99.1018	
2.65616E-02	98.798	
2.65619E-02	98.7334	
2.65639E-02	97.8812	
2.65640E-02	97.8719	
2.65660E-02	96.5784	
2.65675E-02	95.3316	
2.65688E-02	94.3024	
2.65715E-02	91.5362	
2.65756E-02	86.7865	
2.65759E-02	86.4572	
2.65793E-02	82.1834	
2.65825E-02	78.2458	
2.65857E-02	74.3164	
2.65874E-02	72.1383	
2.65888E-02	70.5152	
2.65920E-02	66.8719	
2.65922E-02	66.67	
2.65941E-02	64.6299	
2.65962E-02	62.4078	
2.65969E-02	61.6682	
2.65984E-02	60.3297	
2.66005E-02	58.3252	
2.66017E-02	57.158	
2.66037E-02	55.5121	
2.66065E-02	53.1234	
2.66068E-02	52.8526	
2.66100E-02	50.4213	
2.66121E-02	48.9343	
2.66135E-02	47.9442	
2.66146E-02	47.2619	
2.66171E-02	45.6723	
2.66195E-02	44.2426	
2.66220E-02	42.8151	
2.66224E-02	42.6114	
2.66245E-02	41.5321	
2.66270E-02	40.2746	
2.66277E-02	39.9158	
2.66307E-02	38.5653	
2.66330E-02	37.5341	
2.66333E-02	37.3932	
2.66361E-02	36.2666	
2.66383E-02	35.4228	
2.66390E-02	35.1718	
2.66418E-02	34.1694	
2.66435E-02	33.5436	
2.66446E-02	33.2074	
2.66488E-02	31.8644	
2.66531E-02	30.6592	
2.66541E-02	30.3583	
2.66563E-02	29.8154	
2.66594E-02	29.002	
2.66598E-02	28.9215	
2.66633E-02	28.1176	
2.66666E-02	27.3748	
2.66668E-02	27.3218	
2.66704E-02	26.6165	
2.66738E-02	25.9296	
2.66739E-02	25.914	
2.66792E-02	24.9811	
2.66811E-02	24.6549	
2.66827E-02	24.3927	
2.66869E-02	23.7448	
2.66883E-02	23.5244	
2.66910E-02	23.1448	
2.66952E-02	22.5698	
2.66960E-02	22.4536	
2.66993E-02	22.0458	
2.67042E-02	21.4428	
2.67055E-02	21.2974	
2.67118E-02	20.6147	
2.67124E-02	20.5422	
2.67179E-02	20.0057	
2.67206E-02	19.7378	
2.67239E-02	19.46	
2.67298E-02	18.9468	
2.67322E-02	18.738	
2.67358E-02	18.4736	
2.67417E-02	18.0278	
2.67435E-02	17.8958	
2.67477E-02	17.6196	
2.67543E-02	17.1839	
2.67547E-02	17.1549	
2.67609E-02	16.7986	
2.67675E-02	16.4172	
2.67680E-02	16.3918	
2.67742E-02	16.0809	
2.67808E-02	15.7479	
2.67812E-02	15.7258	
2.67874E-02	15.4466	
2.67900E-02	15.3271	
2.67962E-02	15.0796	
2.68050E-02	14.7264	
2.68077E-02	14.6205	
2.68139E-02	14.4081	
2.68227E-02	14.1049	
2.68253E-02	14.014	
2.68315E-02	13.8299	
2.68403E-02	13.567	
2.68430E-02	13.4882	
2.68492E-02	13.3271	
2.68580E-02	13.0972	
2.68606E-02	13.0282	
2.68668E-02	12.8903	
2.68756E-02	12.6933	
2.68845E-02	12.4964	
2.68871E-02	12.4374	
2.68977E-02	12.2385	
2.69109E-02	11.9902	
2.69136E-02	11.9405	
2.69242E-02	11.7721	
2.69374E-02	11.5617	
2.69414E-02	11.4986	
2.69507E-02	11.3728	
2.69641E-02	11.1903	
2.69718E-02	11.0856	
2.69780E-02	11.0151	
2.69919E-02	10.8565	
2.70063E-02	10.6931	
2.70089E-02	10.6629	
2.70208E-02	10.5494	
2.70354E-02	10.4108	
2.70486E-02	10.2849	
2.70503E-02	10.2716	
2.70652E-02	10.1521	
2.70801E-02	10.0326	
2.70883E-02	9.96626	
2.70949E-02	9.92127	
2.71148E-02	9.78635	
2.71324E-02	9.66647	
2.71501E-02	9.56575	
2.71678E-02	9.46507	
2.71854E-02	9.36442	
2.72031E-02	9.28211	
2.72207E-02	9.19984	
2.72384E-02	9.11758	
2.72560E-02	9.03535	
2.72825E-02	8.93518	
2.73089E-02	8.83505	
2.73266E-02	8.76833	
2.73354E-02	8.74123	
2.73619E-02	8.65996	
2.73884E-02	8.57873	
2.74148E-02	8.49752	
2.74413E-02	8.43228	
2.74678E-02	8.36707	
2.74943E-02	8.30187	
2.75119E-02	8.25842	
2.75384E-02	8.20601	
2.75737E-02	8.13616	
2.76090E-02	8.06633	
2.76267E-02	8.03143	
2.76443E-02	8.00377	
2.76796E-02	7.94847	
2.77149E-02	7.89319	
2.77502E-02	7.83792	
2.77679E-02	7.81029	
2.77855E-02	7.78882	
2.78208E-02	7.74588	
2.78561E-02	7.70296	
2.78914E-02	7.66004	
2.79267E-02	7.61712	
2.79443E-02	7.59567	
2.79620E-02	7.57921	
2.79973E-02	7.54631	
2.80502E-02	7.49695	
2.81032E-02	7.44761	
2.81562E-02	7.39827	
2.82091E-02	7.3609	
2.82621E-02	7.32353	
2.83150E-02	7.28616	
2.83679E-02	7.2488	
2.84209E-02	7.21144	
2.84562E-02	7.19263	
2.85268E-02	7.15501	
2.85974E-02	7.11739	
2.86680E-02	7.07978	
2.87386E-02	7.04217	
2.88092E-02	7.01431	
2.88798E-02	6.98644	
2.89504E-02	6.95859	
2.90210E-02	6.93073	
2.90916E-02	6.90288	
2.91622E-02	6.87502	
2.92328E-02	6.85485	
2.93034E-02	6.83469	
2.93740E-02	6.81452	
2.94799E-02	6.78427	
2.95858E-02	6.75403	
2.96917E-02	6.72379	
2.97270E-02	6.71371	
2.97976E-02	6.69764	
2.99035E-02	6.67354	
2.99694E-02	6.65854	
3.00000E-02	6.65236	
3.04232E-02	9.42849	
3.08525E-02	9.4086	
3.12500E-02	9.39017	
3.16909E-02	9.37089	
3.21380E-02	9.35134	
3.25000E-02	9.33551	
3.29585E-02	9.31704	
3.34235E-02	9.29832	
3.38950E-02	9.27933	
3.43732E-02	9.26008	
3.48582E-02	9.24055	
3.50000E-02	9.23484	
3.54938E-02	9.21691	
3.59945E-02	9.19873	
3.65024E-02	9.18029	
3.70173E-02	9.16159	
3.75000E-02	9.14406	
3.80291E-02	9.12661	
3.85656E-02	9.1089	
3.91097E-02	9.09095	
3.96614E-02	9.07275	
4.00000E-02	9.06158	
4.05643E-02	9.04454	
4.11366E-02	9.02727	
4.17170E-02	9.00975	
4.23055E-02	8.99198	
4.25000E-02	8.98611	
4.30996E-02	8.96946	
4.37077E-02	8.95257	
4.43243E-02	8.93544	
4.49496E-02	8.91807	
4.50000E-02	8.91667	
4.56349E-02	8.90036	
4.62787E-02	8.88382	
4.69316E-02	8.86705	
4.75000E-02	8.85244	
4.81701E-02	8.83644	
4.88497E-02	8.82022	
4.95389E-02	8.80376	
5.00000E-02	8.79275	
5.07054E-02	8.77704	
5.14208E-02	8.7611	
5.21462E-02	8.74493	
5.25000E-02	8.73705	
5.32407E-02	8.72159	
5.39918E-02	8.70591	
5.47535E-02	8.69001	
5.50000E-02	8.68487	
5.57759E-02	8.66964	
5.65628E-02	8.6542	
5.73608E-02	8.63854	
5.75000E-02	8.63581	
5.83112E-02	8.62079	
5.91339E-02	8.60557	
5.99682E-02	8.59013	
6.00000E-02	8.58954	
6.08465E-02	8.5751	
6.17049E-02	8.56045	
6.25755E-02	8.5456	
6.34583E-02	8.53054	
6.43536E-02	8.51526	
6.50000E-02	8.50424	
6.59170E-02	8.4901	
6.68470E-02	8.47575	
6.77901E-02	8.46121	
6.87465E-02	8.44646	
6.97164E-02	8.43151	
7.00000E-02	8.42714	
7.09876E-02	8.41325	
7.19891E-02	8.39917	
7.30047E-02	8.3849	
7.40347E-02	8.37042	
7.50000E-02	8.35684	
7.60581E-02	8.34318	
7.71312E-02	8.32932	
7.82193E-02	8.31526	
7.93229E-02	8.301	
8.00000E-02	8.29225	
8.11287E-02	8.27877	
8.22732E-02	8.26509	
8.34340E-02	8.25122	
8.46111E-02	8.23715	
8.50000E-02	8.23251	
8.61992E-02	8.21917	
8.74153E-02	8.20565	
8.86486E-02	8.19194	
8.98993E-02	8.17803	
9.00000E-02	8.17691	
1.00000E-01	8.07608	
1.14616E-01	8.05807	
1.31581E-01	8.02567	
1.50000E-01	7.9906	
1.78713E-01	7.93656	
2.00000E-01	7.88282	
2.50000E-01	7.75708	
2.55315E-01	7.74373	
3.06318E-01	7.58307	
3.26243E-01	7.50145	
3.67748E-01	7.33145	
4.45393E-01	7.07471	
4.85398E-01	6.9585	
5.07054E-01	6.89561	
5.87941E-01	6.59763	
6.62717E-01	6.36238	
6.62863E-01	6.36192	
6.67539E-01	6.34715	
6.73140E-01	6.32958	
6.77986E-01	6.31447	
6.83424E-01	6.29761	
6.87531E-01	6.28494	
6.93737E-01	6.26588	
7.00000E-01	6.24675	
7.04938E-01	6.22487	
7.11782E-01	6.20334	
7.23762E-01	6.16496	
7.32880E-01	6.13578	
7.49113E-01	6.08279	
7.58889E-01	6.05026	
7.74138E-01	6.00872	
7.77781E-01	5.99852	
7.99882E-01	5.93667	
8.00000E-01	5.93634	
8.05643E-01	5.91598	
8.42305E-01	5.81209	
8.60499E-01	5.75928	
8.80050E-01	5.70254	
8.80342E-01	5.70187	
9.00000E-01	5.65576	
9.37057E-01	5.55214	
9.48683E-01	5.5242	
1.00000E+00	5.39848	
1.00705E+00	5.37865	
1.07229E+00	5.22513	
1.10255E+00	5.16227	
1.15777E+00	5.0452	
1.19878E+00	4.97187	
1.24146E+00	4.89438	
1.25000E+00	4.87888	
1.25882E+00	4.86148	
1.35938E+00	4.69744	
1.38813E+00	4.65415	
1.43748E+00	4.57895	
1.45776E+00	4.55557	
1.50000E+00	4.50286	
1.51058E+00	4.48762	
1.52918E+00	4.46651	
1.55518E+00	4.43684	
1.60175E+00	4.3833	
1.63161E+00	4.3487	
1.63759E+00	4.34276	
1.69286E+00	4.28737	
1.75000E+00	4.22948	
1.75252E+00	4.22646	
1.75464E+00	4.22647	
1.75615E+00	4.22585	
1.75677E+00	4.22562	
1.75978E+00	4.22304	
1.77107E+00	4.21344	
1.78457E+00	4.20184	
1.81018E+00	4.17961	
1.81098E+00	4.1789	
1.84291E+00	4.15073	
1.85649E+00	4.13854	
1.87075E+00	4.12576	
1.87243E+00	4.12423	
1.87444E+00	4.1228	
1.90652E+00	4.10115	
1.91593E+00	4.09481	
1.93620E+00	4.08074	
1.95751E+00	4.06589	
1.96834E+00	4.05814	
1.97950E+00	4.05017	
2.00000E+00	4.03731	
2.09396E+00	3.98968	
2.12342E+00	3.9745	
2.17599E+00	3.94672	
2.20214E+00	3.9327	
2.22985E+00	3.92094	
2.27112E+00	3.90295	
2.27254E+00	3.90232	
2.34980E+00	3.86918	
2.37767E+00	3.85688	
2.42243E+00	3.83673	
2.44169E+00	3.82808	
2.49126E+00	3.80787	
2.50104E+00	3.80388	
2.50229E+00	3.80338	
2.51215E+00	3.79934	
2.58221E+00	3.77015	
2.83877E+00	3.71164	
2.92984E+00	3.69262	
2.96471E+00	3.68824	
3.00000E+00	3.68466	
3.02595E+00	3.68093	
3.05212E+00	3.67714	
3.11701E+00	3.66937	
3.15373E+00	3.66635	
3.20411E+00	3.66217	
3.24885E+00	3.65912	
3.25185E+00	3.65891	
3.26562E+00	3.65815	
3.33712E+00	3.65471	
3.34948E+00	3.65428	
3.36066E+00	3.65394	
3.37513E+00	3.65349	
3.42463E+00	3.65193	
3.43550E+00	3.65172	
3.49176E+00	3.65092	
3.51639E+00	3.65091	
3.52154E+00	3.65091	
3.56868E+00	3.65087	
3.59335E+00	3.65105	
3.61994E+00	3.65175	
3.63550E+00	3.65235	
3.66540E+00	3.65347	
3.68454E+00	3.65443	
3.77819E+00	3.65918	
3.80378E+00	3.66061	
3.80523E+00	3.66069	
3.81340E+00	3.66123	
3.82905E+00	3.66224	
3.85072E+00	3.66391	
3.94336E+00	3.67124	
3.95039E+00	3.67181	
3.95197E+00	3.67195	
4.00000E+00	3.67595	
4.11314E+00	3.69492	
4.16364E+00	3.70358	
4.21476E+00	3.713	
4.22949E+00	3.71538	
4.30574E+00	3.72777	
4.31890E+00	3.73006	
4.34616E+00	3.73491	
4.39868E+00	3.74428	
4.45927E+00	3.75386	
4.46970E+00	3.75551	
4.47994E+00	3.75726	
4.58871E+00	3.77618	
4.59863E+00	3.77791	
4.60465E+00	3.77896	
4.65231E+00	3.78621	
4.72613E+00	3.79847	
4.77362E+00	3.80637	
4.80134E+00	3.81111	
4.82302E+00	3.81493	
4.85619E+00	3.8209	
4.86458E+00	3.82241	
4.89649E+00	3.82752	
4.92337E+00	3.83183	
4.93288E+00	3.83339	
4.95516E+00	3.83712	
4.97000E+00	3.83963	
5.00000E+00	3.84471	
5.03527E+00	3.85371	
5.11526E+00	3.87411	
5.21829E+00	3.90039	
5.23318E+00	3.9043	
5.35083E+00	3.93522	
5.40361E+00	3.9491	
5.46435E+00	3.96545	
5.47723E+00	3.96891	
5.48503E+00	3.97087	
5.54691E+00	3.98642	
5.59360E+00	3.99817	
5.60948E+00	4.00217	
5.66367E+00	4.01609	
5.69255E+00	4.02353	
5.70466E+00	4.02665	
5.77710E+00	4.04533	
5.80145E+00	4.05167	
5.84425E+00	4.06288	
5.85046E+00	4.06451	
5.88573E+00	4.07376	
5.89555E+00	4.07635	
5.92476E+00	4.08359	
5.94974E+00	4.08981	
6.00000E+00	4.1024	
6.11673E+00	4.13128	
6.22074E+00	4.15702	
6.23574E+00	4.16073	
6.34748E+00	4.18864	
6.35407E+00	4.19029	
6.41860E+00	4.20641	
6.46786E+00	4.2188	
6.48855E+00	4.22401	
6.52122E+00	4.23223	
6.54294E+00	4.2377	
6.55244E+00	4.24009	
6.56552E+00	4.24339	
6.57753E+00	4.24641	
6.58831E+00	4.24913	
6.59697E+00	4.25131	
6.59820E+00	4.25162	
6.61029E+00	4.25466	
6.61280E+00	4.2553	
6.62088E+00	4.25734	
6.63014E+00	4.25969	
6.64178E+00	4.26264	
6.65153E+00	4.26511	
6.66239E+00	4.26785	
6.66677E+00	4.26896	
6.67402E+00	4.2708	
6.68449E+00	4.27345	
6.69496E+00	4.27611	
6.70911E+00	4.27969	
6.72267E+00	4.28313	
6.73283E+00	4.2857	
6.73537E+00	4.28635	
6.74001E+00	4.28749	
6.74856E+00	4.28961	
6.75626E+00	4.29152	
6.77149E+00	4.2953	
6.78577E+00	4.29884	
6.79916E+00	4.30216	
6.81760E+00	4.30673	
6.83136E+00	4.31015	
6.83451E+00	4.31093	
6.84971E+00	4.3147	
6.86364E+00	4.31816	
6.88069E+00	4.3224	
6.88422E+00	4.32327	
6.89560E+00	4.3261	
6.90865E+00	4.32934	
6.91516E+00	4.33096	
6.92507E+00	4.33343	
6.93880E+00	4.33685	
6.95410E+00	4.34066	
6.97050E+00	4.34475	
6.98525E+00	4.34843	
7.00000E+00	4.35211	
7.02332E+00	4.35544	
7.04615E+00	4.3587	
7.06839E+00	4.36188	
7.09016E+00	4.36499	
7.11138E+00	4.36802	
7.11782E+00	4.36894	
7.13215E+00	4.37099	
7.15238E+00	4.37388	
7.17220E+00	4.37672	
7.19150E+00	4.37948	
7.21040E+00	4.38218	
7.22254E+00	4.38391	
7.22273E+00	4.38394	
7.23762E+00	4.38607	
7.24702E+00	4.38742	
7.27056E+00	4.3908	
7.29335E+00	4.39408	
7.31543E+00	4.39725	
7.33683E+00	4.40033	
7.35645E+00	4.40315	
7.35755E+00	4.40331	
7.37763E+00	4.40619	
7.39708E+00	4.40899	
7.41592E+00	4.4117	
7.43417E+00	4.41432	
7.45185E+00	4.41687	
7.47043E+00	4.41954	
7.47728E+00	4.42052	
7.49113E+00	4.42252	
7.50165E+00	4.42404	
7.52477E+00	4.42737	
7.54693E+00	4.43058	
7.56794E+00	4.43361	
7.58809E+00	4.43652	
7.59944E+00	4.43816	
7.60720E+00	4.43928	
7.62551E+00	4.44193	
7.64892E+00	4.44531	
7.66904E+00	4.44822	
7.67086E+00	4.44848	
7.69143E+00	4.45146	
7.69766E+00	4.45236	
7.71072E+00	4.45426	
7.72880E+00	4.45688	
7.75395E+00	4.46052	
7.77654E+00	4.4638	
7.79726E+00	4.4668	
7.80993E+00	4.46864	
7.83277E+00	4.47195	
7.83369E+00	4.47208	
7.84737E+00	4.47407	
7.85448E+00	4.47511	
7.87267E+00	4.47775	
7.89555E+00	4.48108	
7.91470E+00	4.48386	
7.93602E+00	4.48696	
7.95202E+00	4.48929	
7.97601E+00	4.49278	
8.00000E+00	4.49627	
8.03208E+00	4.497	
8.06151E+00	4.49766	
8.08736E+00	4.49825	
8.08794E+00	4.49826	
8.10374E+00	4.49862	
8.10758E+00	4.49871	
8.11136E+00	4.4988	
8.11220E+00	4.49882	
8.11508E+00	4.49888	
8.11865E+00	4.49896	
8.11874E+00	4.49896	
8.12235E+00	4.49905	
8.12590E+00	4.49913	
8.12939E+00	4.49921	
8.13283E+00	4.49928	
8.13621E+00	4.49936	
8.13955E+00	4.49944	
8.14185E+00	4.49949	
8.14282E+00	4.49951	
8.14605E+00	4.49958	
8.14923E+00	4.49966	
8.15236E+00	4.49973	
8.15544E+00	4.4998	
8.15847E+00	4.49987	
8.16145E+00	4.49993	
8.16439E+00	4.5	
8.16780E+00	4.50008	
8.16871E+00	4.5001	
8.17293E+00	4.5002	
8.17705E+00	4.50029	
8.18108E+00	4.50038	
8.18500E+00	4.50047	
8.18885E+00	4.50056	
8.19259E+00	4.50064	
8.19626E+00	4.50073	
8.19983E+00	4.50081	
8.20111E+00	4.50084	
8.20333E+00	4.50089	
8.20673E+00	4.50096	
8.21007E+00	4.50104	
8.21332E+00	4.50111	
8.21650E+00	4.50119	
8.21858E+00	4.50123	
8.21965E+00	4.50126	
8.22267E+00	4.50133	
8.22663E+00	4.50142	
8.23047E+00	4.5015	
8.23419E+00	4.50159	
8.23779E+00	4.50167	
8.23907E+00	4.5017	
8.24128E+00	4.50175	
8.24466E+00	4.50183	
8.24793E+00	4.5019	
8.25111E+00	4.50197	
8.25210E+00	4.502	
8.25418E+00	4.50205	
8.25716E+00	4.50211	
8.26144E+00	4.50221	
8.26554E+00	4.50231	
8.26943E+00	4.5024	
8.27040E+00	4.50242	
8.27316E+00	4.50248	
8.27670E+00	4.50256	
8.28010E+00	4.50264	
8.28331E+00	4.50271	
8.28556E+00	4.50277	
8.28640E+00	4.50278	
8.29034E+00	4.50287	
8.29403E+00	4.50296	
8.29750E+00	4.50304	
8.30074E+00	4.50311	
8.30379E+00	4.50318	
8.30802E+00	4.50328	
8.30838E+00	4.50329	
8.31182E+00	4.50337	
8.31531E+00	4.50345	
8.31745E+00	4.5035	
8.32145E+00	4.50359	
8.32495E+00	4.50367	
8.32801E+00	4.50374	
8.33186E+00	4.50383	
8.33509E+00	4.5039	
8.33576E+00	4.50392	
8.33868E+00	4.50399	
8.34253E+00	4.50407	
8.34599E+00	4.50415	
8.34945E+00	4.50423	
8.36462E+00	4.50458	
8.37947E+00	4.50492	
8.38947E+00	4.50515	
8.39394E+00	4.50525	
8.39958E+00	4.50538	
8.40811E+00	4.50558	
8.42191E+00	4.5059	
8.42763E+00	4.50603	
8.43542E+00	4.50621	
8.44858E+00	4.50651	
8.46147E+00	4.50681	
8.46340E+00	4.50685	
8.47403E+00	4.5071	
8.48632E+00	4.50738	
8.49309E+00	4.50753	
8.49694E+00	4.50762	
8.49830E+00	4.50766	
8.51003E+00	4.50793	
8.52534E+00	4.50828	
8.52838E+00	4.50835	
8.54017E+00	4.50863	
8.54583E+00	4.50876	
8.55454E+00	4.50896	
8.55786E+00	4.50904	
8.56846E+00	4.50928	
8.58195E+00	4.50959	
8.59501E+00	4.5099	
8.59886E+00	4.50999	
8.60767E+00	4.51019	
8.61993E+00	4.51048	
8.63181E+00	4.51075	
8.63569E+00	4.51084	
8.64331E+00	4.51102	
8.65446E+00	4.51128	
8.66947E+00	4.51163	
8.67057E+00	4.51165	
8.67077E+00	4.51166	
8.68585E+00	4.51201	
8.69930E+00	4.51232	
8.70050E+00	4.51235	
8.70950E+00	4.51256	
8.71439E+00	4.51267	
8.72771E+00	4.51299	
8.74034E+00	4.51328	
8.74581E+00	4.51341	
8.75245E+00	4.51356	
8.76792E+00	4.51393	
8.77759E+00	4.51415	
8.78242E+00	4.51426	
8.79602E+00	4.51458	
8.80552E+00	4.5148	
8.80877E+00	4.51488	
8.81836E+00	4.5151	
8.82072E+00	4.51516	
8.83385E+00	4.51547	
8.83718E+00	4.51554	
8.84107E+00	4.51564	
8.85228E+00	4.5159	
8.86584E+00	4.51622	
8.87828E+00	4.51651	
8.88080E+00	4.51657	
8.88889E+00	4.51676	
8.89350E+00	4.51686	
8.90681E+00	4.51718	
8.91846E+00	4.51745	
8.92177E+00	4.51753	
8.93311E+00	4.51779	
8.93470E+00	4.51783	
8.94537E+00	4.51808	
8.94971E+00	4.51819	
8.95903E+00	4.5184	
8.97366E+00	4.51875	
8.98324E+00	4.51897	
8.98683E+00	4.51906	
9.00000E+00	4.51937	
9.02408E+00	4.51749	
9.04665E+00	4.51574	
9.04816E+00	4.51562	
9.05946E+00	4.51474	
9.06782E+00	4.51409	
9.08766E+00	4.51254	
9.09029E+00	4.51234	
9.10626E+00	4.5111	
9.12717E+00	4.50947	
9.13187E+00	4.5091	
9.15537E+00	4.50727	
9.17354E+00	4.50586	
9.17647E+00	4.50563	
9.19584E+00	4.50412	
9.20984E+00	4.50303	
9.21236E+00	4.50284	
9.21951E+00	4.50228	
9.24021E+00	4.50067	
9.24023E+00	4.50067	
9.25558E+00	4.49948	
9.26682E+00	4.4986	
9.28800E+00	4.49695	
9.28810E+00	4.49695	
9.30591E+00	4.49556	
9.32575E+00	4.49402	
9.33663E+00	4.49317	
9.34700E+00	4.49237	
9.34731E+00	4.49234	
9.37251E+00	4.49038	
9.38526E+00	4.48939	
9.41378E+00	4.48673	
9.44111E+00	4.48417	
9.44169E+00	4.48412	
9.47604E+00	4.48091	
9.48683E+00	4.4799	
9.49347E+00	4.47938	
9.49465E+00	4.47929	
9.50879E+00	4.47819	
9.53949E+00	4.47581	
9.53997E+00	4.47577	
9.56827E+00	4.47358	
9.58263E+00	4.47246	
9.59525E+00	4.47148	
9.63241E+00	4.4686	
9.63480E+00	4.46841	
9.66650E+00	4.46595	
9.67213E+00	4.46551	
9.68045E+00	4.46487	
9.69711E+00	4.46357	
9.72520E+00	4.46139	
9.73904E+00	4.46032	
9.74004E+00	4.46024	
9.75955E+00	4.45873	
9.77166E+00	4.45779	
9.78961E+00	4.4564	
9.81591E+00	4.45436	
9.82874E+00	4.45336	
9.83470E+00	4.4529	
9.84899E+00	4.45179	
9.87667E+00	4.44965	
9.88761E+00	4.4488	
9.88949E+00	4.44865	
9.90751E+00	4.44726	
9.92775E+00	4.44569	
9.94054E+00	4.4447	
9.97027E+00	4.44239	
9.97592E+00	4.44196	
1.00000E+01	4.44009	
1.00259E+01	4.43858	
1.00388E+01	4.43724	
1.00518E+01	4.4359	
1.00958E+01	4.42792	
1.01111E+01	4.42515	
1.01379E+01	4.42027	
1.01411E+01	4.4197	
1.01649E+01	4.41539	
1.01666E+01	4.41507	
1.01673E+01	4.41495	
1.02171E+01	4.40592	
1.02305E+01	4.40348	
1.02411E+01	4.40172	
1.02431E+01	4.40139	
1.02660E+01	4.39758	
1.03108E+01	4.39015	
1.03119E+01	4.38996	
1.03133E+01	4.38972	
1.03330E+01	4.38645	
1.03549E+01	4.38282	
1.03764E+01	4.37925	
1.03856E+01	4.37772	
1.03952E+01	4.37612	
1.04330E+01	4.36984	
1.04342E+01	4.36964	
1.04562E+01	4.36598	
1.04851E+01	4.36119	
1.04881E+01	4.36069	
1.05049E+01	4.35789	
1.05328E+01	4.35326	
1.05668E+01	4.34762	
1.05757E+01	4.34614	
1.06037E+01	4.34148	
1.06151E+01	4.3396	
1.06203E+01	4.33874	
1.06361E+01	4.33611	
1.06462E+01	4.33443	
1.06468E+01	4.33433	
1.06632E+01	4.33188	
1.07053E+01	4.32558	
1.07098E+01	4.3249	
1.07410E+01	4.32023	
1.07593E+01	4.31771	
1.07630E+01	4.3172	
1.07861E+01	4.31403	
1.07894E+01	4.31358	
1.08222E+01	4.30906	
1.08420E+01	4.30634	
1.08697E+01	4.30254	
1.08857E+01	4.30034	
1.08925E+01	4.29941	
1.08963E+01	4.29889	
1.09287E+01	4.29444	
1.09334E+01	4.2938	
1.09619E+01	4.28988	
1.09701E+01	4.28876	
1.09778E+01	4.28781	
1.10000E+01	4.28506	
1.10625E+01	4.27549	
1.10918E+01	4.27101	
1.11203E+01	4.26665	
1.11211E+01	4.26652	
1.11552E+01	4.2613	
1.11760E+01	4.25811	
1.11872E+01	4.2564	
1.12114E+01	4.25271	
1.12275E+01	4.25023	
1.12517E+01	4.24654	
1.12984E+01	4.23938	
1.13126E+01	4.23722	
1.13137E+01	4.23704	
1.13211E+01	4.236	
1.13494E+01	4.23199	
1.13635E+01	4.23	
1.13851E+01	4.22694	
1.14059E+01	4.22399	
1.14219E+01	4.22172	
1.14722E+01	4.21461	
1.14755E+01	4.21414	
1.14802E+01	4.21348	
1.14891E+01	4.21222	
1.15000E+01	4.21067	
1.15411E+01	4.20486	
1.15542E+01	4.203	
1.15755E+01	4.2002	
1.15985E+01	4.19718	
1.16010E+01	4.19684	
1.16147E+01	4.19503	
1.16340E+01	4.1925	
1.16487E+01	4.19057	
1.16518E+01	4.19016	
1.17131E+01	4.1821	
1.17156E+01	4.18177	
1.17500E+01	4.17724	
1.17739E+01	4.1741	
1.17786E+01	4.17348	
1.17803E+01	4.17325	
1.17867E+01	4.17241	
1.17982E+01	4.17091	
1.18058E+01	4.1699	
1.18352E+01	4.16603	
1.18495E+01	4.16416	
1.18629E+01	4.16251	
1.18750E+01	4.16101	
1.18864E+01	4.1596	
1.18941E+01	4.15865	
1.19375E+01	4.15329	
1.19543E+01	4.15122	
1.19620E+01	4.15026	
1.19646E+01	4.14994	
1.19647E+01	4.14993	
1.19688E+01	4.14943	
1.19724E+01	4.14899	
1.19844E+01	4.1475	
1.19883E+01	4.14702	
1.19912E+01	4.14666	
1.19956E+01	4.14612	
1.20000E+01	4.14558	
1.20122E+01	4.1436	
1.20240E+01	4.14168	
1.20355E+01	4.13982	
1.20466E+01	4.13802	
1.20488E+01	4.13765	
1.20573E+01	4.13627	
1.20677E+01	4.13458	
1.20702E+01	4.13419	
1.20778E+01	4.13295	
1.20923E+01	4.13059	
1.21062E+01	4.12834	
1.21194E+01	4.1262	
1.21289E+01	4.12466	
1.21320E+01	4.12415	
1.21342E+01	4.12379	
1.21440E+01	4.1222	
1.21555E+01	4.12034	
1.21664E+01	4.11857	
1.21693E+01	4.1181	
1.21768E+01	4.11687	
1.21902E+01	4.11471	
1.21942E+01	4.11405	
1.22027E+01	4.11268	
1.22120E+01	4.11117	
1.22144E+01	4.11077	
1.22254E+01	4.10899	
1.22257E+01	4.10895	
1.22357E+01	4.10732	
1.22501E+01	4.10499	
1.22630E+01	4.1029	
1.22643E+01	4.10268	
1.22748E+01	4.10098	
1.22888E+01	4.09871	
1.23015E+01	4.09665	
1.23081E+01	4.09559	
1.23126E+01	4.09485	
1.23269E+01	4.09254	
1.23274E+01	4.09246	
1.23348E+01	4.09125	
1.23370E+01	4.09089	
1.23410E+01	4.09025	
1.23487E+01	4.08899	
1.23630E+01	4.08667	
1.23728E+01	4.08509	
1.23843E+01	4.08323	
1.23845E+01	4.08318	
1.23904E+01	4.08223	
1.23966E+01	4.081	
1.24053E+01	4.07927	
1.24191E+01	4.07655	
1.24311E+01	4.07416	
1.24358E+01	4.07322	
1.24401E+01	4.07237	
1.24505E+01	4.0707	
1.24616E+01	4.06892	
1.24633E+01	4.06864	
1.24673E+01	4.068	
1.24715E+01	4.06734	
1.24718E+01	4.06729	
1.24781E+01	4.0663	
1.24795E+01	4.06608	
1.24875E+01	4.06483	
1.24900E+01	4.06444	
1.24930E+01	4.06397	
1.24957E+01	4.06355	
1.25060E+01	4.06193	
1.25080E+01	4.06161	
1.25125E+01	4.06092	
1.25147E+01	4.06058	
1.25242E+01	4.05909	
1.25243E+01	4.05907	
1.25315E+01	4.05794	
1.25387E+01	4.05682	
1.25424E+01	4.05624	
1.25532E+01	4.05455	
1.25672E+01	4.05236	
1.25739E+01	4.05131	
1.25807E+01	4.05025	
1.25811E+01	4.05018	
1.25938E+01	4.0482	
1.26065E+01	4.04621	
1.26126E+01	4.04525	
1.26156E+01	4.04478	
1.26188E+01	4.04429	
1.26264E+01	4.0431	
1.26307E+01	4.04242	
1.26335E+01	4.04199	
1.26478E+01	4.03974	
1.26579E+01	4.03816	
1.26642E+01	4.03717	
1.26662E+01	4.03687	
1.26798E+01	4.03474	
1.26852E+01	4.03389	
1.26948E+01	4.0324	
1.27007E+01	4.03147	
1.27049E+01	4.03081	
1.27089E+01	4.03019	
1.27225E+01	4.02806	
1.27233E+01	4.02793	
1.27354E+01	4.02605	
1.27406E+01	4.02522	
1.27424E+01	4.02494	
1.27434E+01	4.02479	
1.27477E+01	4.02412	
1.27569E+01	4.02269	
1.27635E+01	4.02165	
1.27755E+01	4.01977	
1.27782E+01	4.01934	
1.27794E+01	4.01916	
1.27921E+01	4.01718	
1.27936E+01	4.01694	
1.27997E+01	4.016	
1.28051E+01	4.01514	
1.28173E+01	4.01324	
1.28182E+01	4.01309	
1.28342E+01	4.01059	
1.28351E+01	4.01046	
1.28402E+01	4.00965	
1.28494E+01	4.00821	
1.28557E+01	4.00724	
1.28602E+01	4.00653	
1.28634E+01	4.00603	
1.28777E+01	4.0038	
1.28799E+01	4.00344	
1.28950E+01	4.0011	
1.29001E+01	4.00029	
1.29081E+01	3.99905	
1.29126E+01	3.99834	
1.29175E+01	3.99757	
1.29222E+01	3.99684	
1.29249E+01	3.99641	
1.29278E+01	3.99596	
1.29343E+01	3.99495	
1.29344E+01	3.99493	
1.29507E+01	3.99238	
1.29566E+01	3.99147	
1.29570E+01	3.99141	
1.29677E+01	3.98974	
1.29723E+01	3.98901	
1.29741E+01	3.98873	
1.29771E+01	3.98826	
1.29792E+01	3.98794	
1.29908E+01	3.98617	
1.29931E+01	3.98582	
1.30000E+01	3.98476	
1.30233E+01	3.98135	
1.30312E+01	3.98019	
1.30461E+01	3.97802	
1.30615E+01	3.97577	
1.30684E+01	3.97477	
1.30902E+01	3.97158	
1.30909E+01	3.97148	
1.30918E+01	3.97134	
1.31114E+01	3.96848	
1.31193E+01	3.96733	
1.31321E+01	3.96545	
1.31468E+01	3.96331	
1.31524E+01	3.96249	
1.31722E+01	3.9596	
1.31734E+01	3.95942	
1.31760E+01	3.95904	
1.31834E+01	3.95796	
1.31915E+01	3.95678	
1.31993E+01	3.95564	
1.32099E+01	3.95409	
1.32104E+01	3.95402	
1.32243E+01	3.95199	
1.32288E+01	3.95133	
1.32468E+01	3.9487	
1.32517E+01	3.94799	
1.32603E+01	3.94673	
1.32644E+01	3.94613	
1.32790E+01	3.944	
1.32816E+01	3.94362	
1.32928E+01	3.94198	
1.32948E+01	3.9417	
1.33149E+01	3.93876	
1.33211E+01	3.93786	
1.33275E+01	3.93692	
1.33335E+01	3.93604	
1.33363E+01	3.93564	
1.33571E+01	3.93267	
1.33588E+01	3.93242	
1.33691E+01	3.93094	
1.33694E+01	3.93091	
1.33772E+01	3.9298	
1.33886E+01	3.92816	
1.33966E+01	3.92701	
1.34059E+01	3.92568	
1.34155E+01	3.92432	
1.34171E+01	3.92409	
1.34337E+01	3.9217	
1.34441E+01	3.92022	
1.34514E+01	3.91917	
1.34686E+01	3.91672	
1.34701E+01	3.91651	
1.34802E+01	3.91506	
1.34848E+01	3.9144	
1.34852E+01	3.91435	
1.34868E+01	3.91411	
1.35013E+01	3.91205	
1.35032E+01	3.91178	
1.35244E+01	3.90874	
1.35342E+01	3.90734	
1.35466E+01	3.90557	
1.35492E+01	3.9052	
1.35580E+01	3.90394	
1.35633E+01	3.90318	
1.35676E+01	3.90257	
1.35755E+01	3.90144	
1.35878E+01	3.89968	
1.35906E+01	3.89928	
1.36069E+01	3.89695	
1.36162E+01	3.89562	
1.36252E+01	3.89433	
1.36286E+01	3.89386	
1.36426E+01	3.89185	
1.36518E+01	3.89054	
1.36593E+01	3.88947	
1.36619E+01	3.8891	
1.36806E+01	3.88643	
1.36838E+01	3.88597	
1.37005E+01	3.88358	
1.37090E+01	3.88237	
1.37131E+01	3.88179	
1.37193E+01	3.88091	
1.37214E+01	3.8806	
1.37310E+01	3.87923	
1.37368E+01	3.8784	
1.37493E+01	3.87662	
1.37533E+01	3.87605	
1.37647E+01	3.87443	
1.37742E+01	3.87306	
1.37761E+01	3.87279	
1.37781E+01	3.87251	
1.37941E+01	3.87027	
1.37967E+01	3.86991	
1.38155E+01	3.86726	
1.38172E+01	3.86703	
1.38198E+01	3.86666	
1.38271E+01	3.86564	
1.38487E+01	3.86261	
1.38522E+01	3.86211	
1.38537E+01	3.8619	
1.38574E+01	3.86139	
1.38676E+01	3.85995	
1.38793E+01	3.85831	
1.38825E+01	3.85787	
1.38842E+01	3.85763	
1.39050E+01	3.85471	
1.39095E+01	3.85408	
1.39224E+01	3.85227	
1.39418E+01	3.84954	
1.39433E+01	3.84934	
1.39511E+01	3.84824	
1.39525E+01	3.84805	
1.39608E+01	3.84687	
1.39626E+01	3.84663	
1.39709E+01	3.84546	
1.39813E+01	3.84401	
1.40000E+01	3.84138	
1.40117E+01	3.83995	
1.40231E+01	3.83855	
1.40232E+01	3.83853	
1.40312E+01	3.83754	
1.40342E+01	3.83718	
1.40451E+01	3.83585	
1.40454E+01	3.8358	
1.40557E+01	3.83454	
1.40605E+01	3.83395	
1.40661E+01	3.83327	
1.40738E+01	3.83231	
1.40762E+01	3.83203	
1.40861E+01	3.83081	
1.40880E+01	3.83057	
1.40898E+01	3.83035	
1.40957E+01	3.82962	
1.41005E+01	3.82904	
1.41052E+01	3.82846	
1.41138E+01	3.82741	
1.41144E+01	3.82733	
1.41234E+01	3.82623	
1.41250E+01	3.82603	
1.41254E+01	3.82598	
1.41322E+01	3.82515	
1.41408E+01	3.82409	
1.41489E+01	3.8231	
1.41492E+01	3.82306	
1.41520E+01	3.82272	
1.41629E+01	3.82138	
1.41650E+01	3.82112	
1.41708E+01	3.82041	
1.41734E+01	3.82009	
1.41818E+01	3.81907	
1.41836E+01	3.81884	
1.41935E+01	3.81762	
1.41975E+01	3.81713	
1.42010E+01	3.8167	
1.42031E+01	3.81645	
1.42110E+01	3.81548	
1.42124E+01	3.81531	
1.42214E+01	3.81421	
1.42287E+01	3.8133	
1.42301E+01	3.81314	
1.42378E+01	3.8122	
1.42385E+01	3.81211	
1.42467E+01	3.8111	
1.42488E+01	3.81085	
1.42536E+01	3.81025	
1.42539E+01	3.81022	
1.42584E+01	3.80966	
1.42697E+01	3.80828	
1.42705E+01	3.80818	
1.42765E+01	3.80745	
1.42804E+01	3.80697	
1.42906E+01	3.80572	
1.42992E+01	3.80466	
1.43003E+01	3.80453	
1.43044E+01	3.80402	
1.43096E+01	3.80339	
1.43185E+01	3.8023	
1.43269E+01	3.80127	
1.43289E+01	3.80103	
1.43360E+01	3.80015	
1.43378E+01	3.79994	
1.43385E+01	3.79985	
1.43418E+01	3.79944	
1.43479E+01	3.7987	
1.43503E+01	3.79841	
1.43574E+01	3.79753	
1.43655E+01	3.79654	
1.43663E+01	3.79644	
1.43747E+01	3.79542	
1.43772E+01	3.79511	
1.43863E+01	3.794	
1.43902E+01	3.79352	
1.43967E+01	3.79272	
1.43978E+01	3.79258	
1.43997E+01	3.79235	
1.44063E+01	3.79154	
1.44176E+01	3.79016	
1.44177E+01	3.79015	
1.44193E+01	3.78996	
1.44248E+01	3.78928	
1.44279E+01	3.78889	
1.44370E+01	3.78779	
1.44470E+01	3.78656	
1.44473E+01	3.78653	
1.44485E+01	3.78638	
1.44516E+01	3.78599	
1.44549E+01	3.78559	
1.44662E+01	3.78421	
1.44758E+01	3.78304	
1.44778E+01	3.78279	
1.44823E+01	3.78224	
1.44857E+01	3.78182	
1.44952E+01	3.78066	
1.45000E+01	3.78008	
1.45078E+01	3.77912	
1.45155E+01	3.77818	
1.45156E+01	3.77816	
1.45268E+01	3.7768	
1.45308E+01	3.77631	
1.45312E+01	3.77625	
1.45379E+01	3.77544	
1.45454E+01	3.77451	
1.45486E+01	3.77412	
1.45592E+01	3.77283	
1.45596E+01	3.77278	
1.45605E+01	3.77266	
1.45625E+01	3.77242	
1.45695E+01	3.77157	
1.45697E+01	3.77154	
1.45795E+01	3.77034	
1.45801E+01	3.77027	
1.45880E+01	3.7693	
1.45893E+01	3.76914	
1.45989E+01	3.76796	
1.45996E+01	3.76788	
1.46009E+01	3.76772	
1.46083E+01	3.76682	
1.46138E+01	3.76615	
1.46174E+01	3.7657	
1.46182E+01	3.7656	
1.46250E+01	3.76477	
1.46264E+01	3.76461	
1.46351E+01	3.76354	
1.46360E+01	3.76343	
1.46379E+01	3.76319	
1.46436E+01	3.7625	
1.46492E+01	3.76181	
1.46519E+01	3.76148	
1.46529E+01	3.76136	
1.46605E+01	3.76043	
1.46627E+01	3.76016	
1.46691E+01	3.75938	
1.46719E+01	3.75904	
1.46733E+01	3.75887	
1.46818E+01	3.75783	
1.46835E+01	3.75762	
1.46844E+01	3.7575	
1.46917E+01	3.75662	
1.46934E+01	3.75641	
1.46991E+01	3.7557	
1.47030E+01	3.75524	
1.47110E+01	3.75426	
1.47122E+01	3.7541	
1.47179E+01	3.7534	
1.47188E+01	3.75331	
1.47203E+01	3.75312	
1.47212E+01	3.753	
1.47299E+01	3.75194	
1.47356E+01	3.75125	
1.47378E+01	3.75098	
1.47384E+01	3.75091	
1.47435E+01	3.75028	
1.47460E+01	3.74998	
1.47466E+01	3.74991	
1.47521E+01	3.74924	
1.47545E+01	3.74895	
1.47621E+01	3.74802	
1.47676E+01	3.74736	
1.47695E+01	3.74712	
1.47705E+01	3.747	
1.47732E+01	3.74667	
1.47821E+01	3.7456	
1.47838E+01	3.7454	
1.47847E+01	3.74529	
1.47938E+01	3.74417	
1.47983E+01	3.74363	
1.47992E+01	3.74352	
1.48023E+01	3.74314	
1.48034E+01	3.74301	
1.48069E+01	3.74258	
1.48126E+01	3.7419	
1.48205E+01	3.74094	
1.48213E+01	3.74085	
1.48235E+01	3.74057	
1.48243E+01	3.74047	
1.48296E+01	3.73983	
1.48371E+01	3.73892	
1.48402E+01	3.73854	
1.48473E+01	3.73769	
1.48502E+01	3.73733	
1.48552E+01	3.73673	
1.48559E+01	3.73664	
1.48594E+01	3.73622	
1.48596E+01	3.7362	
1.48616E+01	3.73596	
1.48664E+01	3.73537	
1.48684E+01	3.73513	
1.48766E+01	3.73414	
1.48818E+01	3.73351	
1.48823E+01	3.73344	
1.48831E+01	3.73335	
1.48879E+01	3.73276	
1.48977E+01	3.73158	
1.48983E+01	3.7315	
1.49035E+01	3.73088	
1.49077E+01	3.73037	
1.49117E+01	3.72988	
1.49161E+01	3.72935	
1.49162E+01	3.72933	
1.49267E+01	3.72807	
1.49276E+01	3.72796	
1.49315E+01	3.72749	
1.49359E+01	3.72696	
1.49433E+01	3.72606	
1.49439E+01	3.72598	
1.49486E+01	3.72541	
1.49535E+01	3.72482	
1.49539E+01	3.72477	
1.49540E+01	3.72476	
1.49624E+01	3.72374	
1.49670E+01	3.72319	
1.49716E+01	3.72262	
1.49718E+01	3.7226	
1.49819E+01	3.72138	
1.49835E+01	3.72119	
1.49845E+01	3.72106	
1.49909E+01	3.72028	
1.50000E+01	3.71918	
1.50123E+01	3.71783	
1.50158E+01	3.71744	
1.50238E+01	3.71657	
1.50292E+01	3.71597	
1.50353E+01	3.7153	
1.50448E+01	3.71426	
1.50454E+01	3.71419	
1.50492E+01	3.71378	
1.50587E+01	3.71273	
1.50643E+01	3.71211	
1.50649E+01	3.71205	
1.50715E+01	3.71132	
1.50872E+01	3.7096	
1.50886E+01	3.70944	
1.50979E+01	3.70842	
1.51008E+01	3.7081	
1.51021E+01	3.70796	
1.51128E+01	3.70678	
1.51226E+01	3.70571	
1.51258E+01	3.70536	
1.51279E+01	3.70512	
1.51332E+01	3.70454	
1.51405E+01	3.70374	
1.51475E+01	3.70297	
1.51501E+01	3.70268	
1.51546E+01	3.70219	
1.51596E+01	3.70164	
1.51649E+01	3.70105	
1.51668E+01	3.70085	
1.51696E+01	3.70054	
1.51832E+01	3.69905	
1.51867E+01	3.69866	
1.51967E+01	3.69757	
1.52116E+01	3.69598	
1.52154E+01	3.69557	
1.52218E+01	3.69489	
1.52338E+01	3.69362	
1.52340E+01	3.6936	
1.52440E+01	3.69253	
1.52461E+01	3.6923	
1.52516E+01	3.69171	
1.52579E+01	3.69104	
1.52691E+01	3.68985	
1.52697E+01	3.68979	
1.52811E+01	3.68857	
1.52862E+01	3.68803	
1.52925E+01	3.68736	
1.52971E+01	3.68687	
1.53029E+01	3.68626	
1.53036E+01	3.68618	
1.53146E+01	3.685	
1.53191E+01	3.68453	
1.53253E+01	3.68386	
1.53350E+01	3.68283	
1.53360E+01	3.68273	
1.53365E+01	3.68268	
1.53410E+01	3.68219	
1.53464E+01	3.68162	
1.53505E+01	3.68118	
1.53568E+01	3.68052	
1.53657E+01	3.67957	
1.53769E+01	3.67838	
1.53775E+01	3.67831	
1.53805E+01	3.67799	
1.53866E+01	3.67734	
1.53950E+01	3.67645	
1.54058E+01	3.6753	
1.54091E+01	3.67495	
1.54111E+01	3.67474	
1.54152E+01	3.6743	
1.54164E+01	3.67417	
1.54229E+01	3.67348	
1.54262E+01	3.67313	
1.54335E+01	3.67236	
1.54408E+01	3.67158	
1.54423E+01	3.67142	
1.54529E+01	3.67029	
1.54583E+01	3.66972	
1.54598E+01	3.66956	
1.54619E+01	3.66934	
1.54683E+01	3.66865	
1.54728E+01	3.66817	
1.54752E+01	3.66792	
1.54850E+01	3.66688	
1.54871E+01	3.66666	
1.54916E+01	3.66618	
1.55016E+01	3.66512	
1.55075E+01	3.66449	
1.55171E+01	3.66347	
1.55192E+01	3.66325	
1.55229E+01	3.66286	
1.55327E+01	3.66181	
1.55378E+01	3.66128	
1.55473E+01	3.66026	
1.55522E+01	3.65974	
1.55619E+01	3.65871	
1.55633E+01	3.65857	
1.55662E+01	3.65826	
1.55702E+01	3.65783	
1.55756E+01	3.65726	
1.55798E+01	3.65682	
1.55893E+01	3.65581	
1.55929E+01	3.65543	
1.55964E+01	3.65506	
1.56021E+01	3.65445	
1.56038E+01	3.65427	
1.56056E+01	3.65408	
1.56150E+01	3.65308	
1.56174E+01	3.65283	
1.56240E+01	3.65213	
1.56270E+01	3.65181	
1.56285E+01	3.65165	
1.56402E+01	3.65041	
1.56415E+01	3.65027	
1.56439E+01	3.65002	
1.56507E+01	3.6493	
1.56540E+01	3.64894	
1.56582E+01	3.6485	
1.56616E+01	3.64814	
1.56735E+01	3.64688	
1.56740E+01	3.64682	
1.56828E+01	3.6459	
1.56892E+01	3.64521	
1.56927E+01	3.64485	
1.57037E+01	3.64369	
1.57122E+01	3.64278	
1.57143E+01	3.64255	
1.57175E+01	3.64222	
1.57212E+01	3.64183	
1.57351E+01	3.64035	
1.57470E+01	3.63909	
1.57501E+01	3.63877	
1.57517E+01	3.6386	
1.57549E+01	3.63826	
1.57672E+01	3.63696	
1.57776E+01	3.63586	
1.57787E+01	3.63575	
1.57813E+01	3.63547	
1.57818E+01	3.63542	
1.57856E+01	3.63502	
1.57954E+01	3.63398	
1.58063E+01	3.63282	
1.58124E+01	3.63218	
1.58142E+01	3.63199	
1.58206E+01	3.63131	
1.58297E+01	3.63035	
1.58314E+01	3.63017	
1.58418E+01	3.62907	
1.58468E+01	3.62855	
1.58469E+01	3.62854	
1.58490E+01	3.62831	
1.58535E+01	3.62784	
1.58554E+01	3.62763	
1.58611E+01	3.62704	
1.58616E+01	3.62698	
1.58646E+01	3.62667	
1.58659E+01	3.62653	
1.58785E+01	3.6252	
1.58901E+01	3.62397	
1.58936E+01	3.6236	
1.58962E+01	3.62333	
1.58994E+01	3.62299	
1.59035E+01	3.62256	
1.59069E+01	3.62219	
1.59237E+01	3.62043	
1.59259E+01	3.6202	
1.59294E+01	3.61983	
1.59319E+01	3.61956	
1.59340E+01	3.61934	
1.59377E+01	3.61895	
1.59432E+01	3.61836	
1.59532E+01	3.61731	
1.59562E+01	3.617	
1.59576E+01	3.61685	
1.59647E+01	3.6161	
1.59699E+01	3.61555	
1.59850E+01	3.61397	
1.59854E+01	3.61392	
1.59859E+01	3.61387	
1.60000E+01	3.61238	
1.60217E+01	3.61017	
1.60434E+01	3.60795	
1.60490E+01	3.60738	
1.60718E+01	3.60505	
1.60726E+01	3.60497	
1.60760E+01	3.60463	
1.60882E+01	3.60338	
1.60973E+01	3.60245	
1.61235E+01	3.59978	
1.61248E+01	3.59965	
1.61370E+01	3.5984	
1.61414E+01	3.59795	
1.61629E+01	3.59576	
1.61736E+01	3.59467	
1.61994E+01	3.59148	
1.62244E+01	3.5884	
1.62253E+01	3.5883	
1.62257E+01	3.58824	
1.62487E+01	3.58542	
1.62495E+01	3.58532	
1.62722E+01	3.58253	
1.62737E+01	3.58234	
1.62949E+01	3.57973	
1.62964E+01	3.57955	
1.62994E+01	3.57918	
1.63191E+01	3.57675	
1.63276E+01	3.5757	
1.63403E+01	3.57413	
1.63590E+01	3.57184	
1.63616E+01	3.57151	
1.63673E+01	3.57081	
1.63802E+01	3.56923	
1.63816E+01	3.56906	
1.63887E+01	3.56818	
1.64015E+01	3.5666	
1.64172E+01	3.56468	
1.64389E+01	3.56201	
1.64442E+01	3.56136	
1.64546E+01	3.56008	
1.64565E+01	3.55985	
1.64701E+01	3.55817	
1.64781E+01	3.55719	
1.64904E+01	3.55568	
1.64947E+01	3.55515	
1.65069E+01	3.55366	
1.65183E+01	3.55226	
1.65255E+01	3.55138	
1.65293E+01	3.55091	
1.65352E+01	3.55019	
1.65377E+01	3.54988	
1.65484E+01	3.54857	
1.65521E+01	3.54811	
1.65666E+01	3.54634	
1.65766E+01	3.54511	
1.65817E+01	3.54449	
1.65937E+01	3.54312	
1.66031E+01	3.54205	
1.66208E+01	3.54003	
1.66279E+01	3.53922	
1.66445E+01	3.53733	
1.66511E+01	3.53656	
1.66682E+01	3.53462	
1.66835E+01	3.53288	
1.66868E+01	3.5325	
1.66889E+01	3.53226	
1.66949E+01	3.53157	
1.67096E+01	3.5299	
1.67126E+01	3.52957	
1.67278E+01	3.52783	
1.67392E+01	3.52653	
1.67448E+01	3.52589	
1.67555E+01	3.52467	
1.67618E+01	3.52396	
1.67676E+01	3.5233	
1.67767E+01	3.52226	
1.67861E+01	3.5212	
1.67916E+01	3.52057	
1.68055E+01	3.51899	
1.68128E+01	3.51816	
1.68156E+01	3.51785	
1.68176E+01	3.51761	
1.68362E+01	3.5155	
1.68437E+01	3.51465	
1.68461E+01	3.51438	
1.68541E+01	3.51347	
1.68632E+01	3.51244	
1.68656E+01	3.51216	
1.68903E+01	3.50937	
1.68974E+01	3.50856	
1.68983E+01	3.50846	
1.69062E+01	3.50756	
1.69121E+01	3.50689	
1.69177E+01	3.50626	
1.69222E+01	3.50575	
1.69341E+01	3.5044	
1.69383E+01	3.50392	
1.69531E+01	3.50224	
1.69560E+01	3.50191	
1.69691E+01	3.50043	
1.69706E+01	3.50027	
1.69780E+01	3.49942	
1.70000E+01	3.49695	
1.70453E+01	3.4922	
1.70528E+01	3.49141	
1.70610E+01	3.49055	
1.70887E+01	3.48765	
1.71182E+01	3.48456	
1.71298E+01	3.48334	
1.71693E+01	3.4792	
1.71718E+01	3.47894	
1.71969E+01	3.47631	
1.72197E+01	3.47393	
1.72342E+01	3.47241	
1.72398E+01	3.47181	
1.72439E+01	3.47138	
1.72456E+01	3.47121	
1.72669E+01	3.46898	
1.72691E+01	3.46875	
1.72934E+01	3.46621	
1.73112E+01	3.46435	
1.73133E+01	3.46413	
1.73340E+01	3.46197	
1.73354E+01	3.46182	
1.73528E+01	3.46001	
1.73741E+01	3.45778	
1.73917E+01	3.45595	
1.73935E+01	3.45576	
1.74269E+01	3.45228	
1.74282E+01	3.45215	
1.74299E+01	3.45197	
1.74663E+01	3.44818	
1.74785E+01	3.44691	
1.74831E+01	3.44644	
1.74981E+01	3.44487	
1.75039E+01	3.44427	
1.75246E+01	3.44211	
1.75300E+01	3.44155	
1.75374E+01	3.44078	
1.75579E+01	3.43866	
1.75660E+01	3.43781	
1.75857E+01	3.43576	
1.76040E+01	3.43386	
1.76101E+01	3.43323	
1.76117E+01	3.43306	
1.76505E+01	3.42904	
1.76558E+01	3.42848	
1.76771E+01	3.42627	
1.76912E+01	3.42482	
1.77014E+01	3.42376	
1.77145E+01	3.4224	
1.77297E+01	3.42083	
1.77319E+01	3.4206	
1.77433E+01	3.41942	
1.77471E+01	3.41903	
1.77502E+01	3.41871	
1.77798E+01	3.41565	
1.77848E+01	3.41513	
1.77851E+01	3.4151	
1.77929E+01	3.4143	
1.78043E+01	3.41312	
1.78201E+01	3.41149	
1.78498E+01	3.40843	
1.78582E+01	3.40756	
1.78590E+01	3.40748	
1.78656E+01	3.4068	
1.79007E+01	3.40318	
1.79128E+01	3.40193	
1.79207E+01	3.40112	
1.79366E+01	3.39948	
1.79508E+01	3.39803	
1.79758E+01	3.39545	
1.79799E+01	3.39491	
1.79879E+01	3.39382	
1.80000E+01	3.39217	
1.80748E+01	3.38201	
1.80986E+01	3.37876	
1.81018E+01	3.37833	
1.81434E+01	3.37268	
1.81881E+01	3.36661	
1.81909E+01	3.36623	
1.82050E+01	3.36432	
1.82539E+01	3.35768	
1.82615E+01	3.35665	
1.82664E+01	3.35598	
1.83030E+01	3.35103	
1.83306E+01	3.34728	
1.83669E+01	3.34237	
1.83911E+01	3.33909	
1.83967E+01	3.33833	
1.84072E+01	3.3369	
1.84228E+01	3.33479	
1.84687E+01	3.32859	
1.84804E+01	3.32701	
1.85012E+01	3.3242	
1.85115E+01	3.32281	
1.85120E+01	3.32275	
1.85208E+01	3.32156	
1.85876E+01	3.31254	
1.86089E+01	3.30967	
1.86109E+01	3.3094	
1.86217E+01	3.30794	
1.86656E+01	3.30203	
1.86823E+01	3.29978	
1.86906E+01	3.29867	
1.87188E+01	3.29488	
1.87704E+01	3.28793	
1.87726E+01	3.28764	
1.87732E+01	3.28756	
1.87826E+01	3.2863	
1.88145E+01	3.28202	
1.89072E+01	3.27036	
1.89737E+01	3.26202	
1.89893E+01	3.26007	
1.90000E+01	3.25873	
1.90242E+01	3.25571	
1.90483E+01	3.2527	
1.90799E+01	3.24861	
1.91078E+01	3.24502	
1.91635E+01	3.23782	
1.91673E+01	3.23735	
1.92193E+01	3.23064	
1.92681E+01	3.22436	
1.92714E+01	3.22393	
1.93169E+01	3.21807	
1.93443E+01	3.21455	
1.93491E+01	3.21392	
1.93596E+01	3.21258	
1.93624E+01	3.21221	
1.94023E+01	3.20709	
1.94421E+01	3.20197	
1.94770E+01	3.1975	
1.95119E+01	3.19302	
1.95184E+01	3.19219	
1.95399E+01	3.18961	
1.95424E+01	3.18932	
1.95816E+01	3.18462	
1.96339E+01	3.17836	
1.96568E+01	3.17563	
1.96694E+01	3.17412	
1.97254E+01	3.16743	
1.97647E+01	3.16275	
1.97748E+01	3.16154	
1.97937E+01	3.15929	
1.98156E+01	3.15669	
1.98235E+01	3.15574	
1.98552E+01	3.15197	
1.98823E+01	3.14874	
1.99168E+01	3.14464	
1.99216E+01	3.14408	
1.99412E+01	3.14175	
1.99517E+01	3.14049	
2.00000E+01	3.13477