E(MeV)	Si-nat			
1.000000E-11	30.1066			
1.102400E-11	28.6821			
1.215040E-11	27.3284			
1.339460E-11	26.037			
1.476330E-11	24.8097			
1.627500E-11	23.6389			
1.793810E-11	22.5265			
1.977490E-11	21.4653			
2.179560E-11	20.457			
2.402740E-11	19.4953			
2.648260E-11	18.5818			
2.919430E-11	17.7105			
3.217750E-11	16.8828			
3.547230E-11	16.0937			
3.909700E-11	15.3442			
4.310050E-11	14.6296			
4.750460E-11	13.9511			
5.236900E-11	13.3043			
5.772020E-11	12.6903			
6.363060E-11	12.1052			
7.013260E-11	11.55			
7.731390E-11	11.021			
8.521420E-11	10.5191			
9.393980E-11	10.0412			
1.035390E-10	9.58795			
1.141410E-10	9.15652			
1.258040E-10	8.74758			
1.386860E-10	8.35853			
1.528580E-10	7.98996			
1.685100E-10	7.63955			
1.857290E-10	7.30781			
2.047470E-10	6.99265			
2.256690E-10	6.69453			
2.487770E-10	6.41155			
2.741980E-10	6.14415			
3.022750E-10	5.89058			
3.331620E-10	5.65314			
3.378620E-10	5.61845			
3.672770E-10	5.42759			
3.776400E-10	5.3631			
4.048070E-10	5.21442			
4.221010E-10	5.12373			
4.462580E-10	5.01229			
4.717970E-10	4.89954			
4.918580E-10	4.82159			
5.273430E-10	4.68979			
5.422230E-10	4.64114			
5.894290E-10	4.49376			
5.976290E-10	4.47122			
6.588240E-10	4.31078			
7.261450E-10	4.1627			
7.363900E-10	4.14114			
8.005010E-10	4.02294			
8.230880E-10	3.98316			
8.822990E-10	3.89247			
9.327920E-10	3.81874			
9.726430E-10	3.76848			
1.057320E-09	3.6669			
1.072030E-09	3.65163			
1.181800E-09	3.54354			
1.198250E-09	3.5281			
1.302560E-09	3.44383			
1.358210E-09	3.40109			
1.435940E-09	3.35001			
1.560960E-09	3.27214			
1.582670E-09	3.26062			
1.744740E-09	3.17943			
1.793970E-09	3.15603			
1.923020E-09	3.10399			
2.061750E-09	3.05111			
2.119930E-09	3.03234			
2.336550E-09	2.9666			
2.402480E-09	2.94768			
2.575810E-09	2.90633			
2.839010E-09	2.8473			
3.129720E-09	2.79649			
3.354860E-09	2.75954			
3.449530E-09	2.74666			
3.802750E-09	2.70183			
4.020380E-09	2.67594			
4.191330E-09	2.65935			
4.620500E-09	2.62064			
4.952890E-09	2.59264			
5.092640E-09	2.58314			
5.614120E-09	2.55034			
6.187790E-09	2.5168			
6.821400E-09	2.48938			
7.518430E-09	2.46153			
7.948710E-09	2.44557			
8.288300E-09	2.43559			
9.135230E-09	2.41281			
1.007060E-08	2.38966			
1.049890E-08	2.37985			
1.109970E-08	2.36914			
1.223630E-08	2.35071			
1.348660E-08	2.33218			
1.466080E-08	2.31618			
1.486760E-08	2.31401			
1.638680E-08	2.2996			
1.806480E-08	2.28519			
1.991070E-08	2.27076			
2.164420E-08	2.25837			
2.194950E-08	2.25656			
2.419240E-08	2.24453			
2.508750E-08	2.24004			
2.530000E-08	2.23905			
2.789060E-08	2.2292			
3.074060E-08	2.2195			
3.388840E-08	2.20987			
3.735120E-08	2.20031			
4.117580E-08	2.19076			
4.353230E-08	2.18544			
4.538330E-08	2.18237			
5.003050E-08	2.17563			
5.514280E-08	2.16909			
6.078920E-08	2.1627			
6.700090E-08	2.15644			
7.386160E-08	2.15023			
8.140900E-08	2.14404			
8.974500E-08	2.13784			
9.099360E-08	2.137			
9.891550E-08	2.13324			
1.090440E-07	2.1291			
1.201870E-07	2.12515			
1.324930E-07	2.12132			
1.480920E-07	2.11704			
1.655280E-07	2.11278			
1.824420E-07	2.1091			
1.983260E-07	2.10604			
2.155920E-07	2.10307			
2.376680E-07	2.0997			
2.619540E-07	2.09639			
2.887770E-07	2.09309			
2.969250E-07	2.09219			
3.227760E-07	2.09017			
3.557580E-07	2.08793			
3.867300E-07	2.08611			
4.203990E-07	2.08441			
4.634470E-07	2.08255			
5.108040E-07	2.08078			
5.631080E-07	2.07909			
6.294050E-07	2.07722			
6.937200E-07	2.07562			
7.647550E-07	2.07409			
8.429000E-07	2.07264			
9.292110E-07	2.07126			
1.024160E-06	2.06994			
1.129030E-06	2.06864			
1.244400E-06	2.0674			
1.371820E-06	2.06619			
1.491250E-06	2.06521			
1.643640E-06	2.06414			
1.837150E-06	2.06297			
2.025270E-06	2.06198			
2.232220E-06	2.06099			
2.495020E-06	2.0599			
2.750500E-06	2.05896			
3.074330E-06	2.0579			
3.341980E-06	2.0571			
3.632940E-06	2.05629			
3.949220E-06	2.0555			
4.352770E-06	2.05464			
4.731720E-06	2.0539			
4.865240E-06	2.05466			
5.363420E-06	2.05758			
5.911480E-06	2.06087			
6.426130E-06	2.06402			
6.985600E-06	2.06434			
7.593760E-06	2.06473			
8.607550E-06	2.06546			
9.356930E-06	2.06605			
1.003000E-05	2.06662			
1.121090E-05	2.06771			
1.253080E-05	2.069			
1.362180E-05	2.07012			
1.501660E-05	2.07158			
1.655100E-05	2.07321			
1.799200E-05	2.07478			
1.983430E-05	2.07683			
2.216950E-05	2.07951			
2.311210E-05	2.08061			
2.477950E-05	2.08092			
2.693690E-05	2.08135			
2.928200E-05	2.08184			
3.272950E-05	2.0826			
3.607390E-05	2.08337			
3.976780E-05	2.08425			
4.444970E-05	2.08542			
4.968300E-05	2.08677			
5.400840E-05	2.0879			
5.871040E-05	2.08916			
6.562260E-05	2.09102			
7.232810E-05	2.09285			
7.862500E-05	2.09459			
8.429740E-05	2.09617			
8.912170E-05	2.09752			
9.036160E-05	2.09749			
9.822850E-05	2.09729			
1.067800E-04	2.09708			
1.160770E-04	2.09687			
1.279630E-04	2.09661			
1.391030E-04	2.09638			
1.512130E-04	2.09615			
1.666650E-04	2.09588			
1.862870E-04	2.09554			
2.053620E-04	2.09523			
2.232410E-04	2.09495			
2.491930E-04	2.09455			
2.708880E-04	2.09423			
2.955520E-04	2.09387			
3.258150E-04	2.09344			
3.591080E-04	2.09298			
3.951860E-04	2.09249			
4.426730E-04	2.09186			
4.983860E-04	2.09113			
5.352040E-04	2.09066			
5.898930E-04	2.08997			
6.447420E-04	2.08928			
7.283200E-04	2.08824			
8.577730E-04	2.08664			
9.197230E-04	2.08588			
9.929430E-04	2.08499			
1.000000E-03	2.0849			
1.582840E-03	2.07834			
2.005000E-03	2.07359			
2.600000E-03	2.06726			
3.186500E-03	2.06043			
3.620300E-03	2.05487			
3.671380E-03	2.05426			
4.130300E-03	2.04886			
4.411650E-03	2.04561			
4.540300E-03	2.06306			
4.845800E-03	2.10468			
4.859400E-03	2.10652			
4.876900E-03	2.11243			
4.884670E-03	2.11505			
4.901200E-03	2.12063			
4.903140E-03	2.1213			
4.904110E-03	2.12164			
4.905080E-03	2.12199			
4.906060E-03	2.12235			
4.906790E-03	2.12263			
4.907510E-03	2.12293			
4.908360E-03	2.12328			
4.909070E-03	2.1236			
4.909780E-03	2.12392			
4.910850E-03	2.12443			
4.911920E-03	2.12495			
4.912990E-03	2.12549			
4.913700E-03	2.12587			
4.914410E-03	2.12626			
4.915130E-03	2.12667			
4.915660E-03	2.12699			
4.916190E-03	2.12733			
4.916730E-03	2.1277			
4.917260E-03	2.1281			
4.917800E-03	2.12853			
4.918330E-03	2.12899			
4.918870E-03	2.12949			
4.919400E-03	2.13003			
4.919970E-03	2.13022			
4.920540E-03	2.13046			
4.921120E-03	2.13073			
4.921880E-03	2.13114			
4.923980E-03	2.13234			
4.924740E-03	2.13273			
4.925500E-03	2.13307			
4.926160E-03	2.1333			
4.926830E-03	2.13347			
4.927490E-03	2.13356			
4.927950E-03	2.13357			
4.928150E-03	2.13385			
4.928810E-03	2.1347			
4.929480E-03	2.13545			
4.929810E-03	2.13579			
4.930470E-03	2.13639			
4.931040E-03	2.13683			
4.931750E-03	2.13729			
4.932460E-03	2.13764			
4.933170E-03	2.13791			
4.933650E-03	2.13806			
4.934600E-03	2.13828			
4.936500E-03	2.13865			
4.937450E-03	2.13889			
4.938160E-03	2.13911			
4.938800E-03	2.13935			
4.939400E-03	2.13961			
4.940000E-03	2.1399			
4.940600E-03	2.14023			
4.941200E-03	2.14058			
4.942000E-03	2.14109			
4.942800E-03	2.14163			
4.943020E-03	2.14178			
4.944000E-03	2.14536			
4.945200E-03	2.1498			
4.946400E-03	2.15426			
4.947100E-03	2.15688			
4.947200E-03	2.15768			
4.948000E-03	2.16408			
4.948600E-03	2.1689			
4.949200E-03	2.17374			
4.949800E-03	2.17861			
4.950400E-03	2.1835			
4.951000E-03	2.18842			
4.951480E-03	2.19242			
4.952050E-03	2.19713			
4.952620E-03	2.20188			
4.953190E-03	2.20664			
4.953760E-03	2.21143			
4.954330E-03	2.21624			
4.955180E-03	2.22348			
4.955250E-03	2.22407			
4.956030E-03	2.23219			
4.956890E-03	2.24106			
4.957460E-03	2.247			
4.958020E-03	2.25297			
4.958310E-03	2.25594			
4.958450E-03	2.25819			
4.958880E-03	2.2648			
4.959300E-03	2.27145			
4.959730E-03	2.27815			
4.959830E-03	2.27979			
4.960160E-03	2.28768			
4.960440E-03	2.29466			
4.960730E-03	2.30167			
4.961010E-03	2.30872			
4.961300E-03	2.31581			
4.961360E-03	2.3175			
4.961580E-03	2.32547			
4.961860E-03	2.33595			
4.962150E-03	2.34649			
4.962380E-03	2.35516			
4.962430E-03	2.35775			
4.962720E-03	2.37206			
4.963000E-03	2.38644			
4.963290E-03	2.4009			
4.963400E-03	2.40672			
4.963570E-03	2.41822			
4.963850E-03	2.43751			
4.964140E-03	2.45688			
4.964420E-03	2.47634			
4.964440E-03	2.47731			
4.964710E-03	2.50068			
4.964990E-03	2.52538			
4.965220E-03	2.54488			
4.965280E-03	2.55129			
4.965560E-03	2.58133			
4.965850E-03	2.61151			
4.965990E-03	2.62735			
4.966130E-03	2.64465			
4.966410E-03	2.681			
4.966700E-03	2.71753			
4.966770E-03	2.72701			
4.966980E-03	2.75909			
4.967270E-03	2.80255			
4.967550E-03	2.84599			
4.967550E-03	2.84627			
4.967840E-03	2.89714			
4.968120E-03	2.94826			
4.968330E-03	2.98582			
4.968400E-03	3.00151			
4.968690E-03	3.0601			
4.968970E-03	3.11898			
4.969110E-03	3.14662			
4.969260E-03	3.18098			
4.969540E-03	3.24611			
4.969620E-03	3.26472			
4.969830E-03	3.31549			
4.970120E-03	3.3866			
4.970410E-03	3.45806			
4.970660E-03	3.52207			
4.970690E-03	3.53017			
4.971130E-03	3.64262			
4.971560E-03	3.75585			
4.971990E-03	3.86986			
4.972290E-03	3.94968			
4.972420E-03	3.98215			
4.972990E-03	4.12547			
4.973170E-03	4.16939			
4.973570E-03	4.25918			
4.973760E-03	4.30156			
4.974340E-03	4.41715			
4.974430E-03	4.43127			
4.974930E-03	4.51226			
4.975520E-03	4.58367			
4.975720E-03	4.59965			
4.976110E-03	4.62852			
4.976400E-03	4.64064			
4.976540E-03	4.64166			
4.976960E-03	4.64376			
4.977010E-03	4.64182			
4.977490E-03	4.62217			
4.977520E-03	4.6205			
4.977960E-03	4.58298			
4.978090E-03	4.57179			
4.978440E-03	4.52746			
4.978650E-03	4.49965			
4.978910E-03	4.45583			
4.979390E-03	4.37436			
4.979400E-03	4.37215			
4.979860E-03	4.27662			
4.980150E-03	4.21582			
4.980310E-03	4.17865			
4.980740E-03	4.07944			
4.981160E-03	3.97831			
4.981590E-03	3.87531			
4.982010E-03	3.77056			
4.982400E-03	3.67358			
4.982440E-03	3.66497			
4.982860E-03	3.56595			
4.983270E-03	3.4698			
4.983500E-03	3.42088			
4.984140E-03	3.28381			
4.984790E-03	3.15779			
4.984990E-03	3.12351			
4.985440E-03	3.04464			
4.986310E-03	2.91289			
4.986690E-03	2.86403			
4.987180E-03	2.80132			
4.987330E-03	2.7846			
4.987910E-03	2.72274			
4.988050E-03	2.70784			
4.988340E-03	2.68135			
4.988770E-03	2.64273			
4.988920E-03	2.62982			
4.989200E-03	2.60865			
4.989610E-03	2.57865			
4.990020E-03	2.54936			
4.990220E-03	2.53587			
4.990300E-03	2.53116			
4.990580E-03	2.51552			
4.990850E-03	2.50019			
4.991120E-03	2.48516			
4.991400E-03	2.47043			
4.991690E-03	2.45519			
4.991960E-03	2.44155			
4.991980E-03	2.44046			
4.992270E-03	2.42819			
4.992560E-03	2.41622			
4.992850E-03	2.40453			
4.993140E-03	2.3931			
4.993430E-03	2.38194			
4.993730E-03	2.37102			
4.994020E-03	2.36032			
4.994310E-03	2.34984			
4.994560E-03	2.34077			
4.994580E-03	2.3402			
4.994830E-03	2.33327			
4.995080E-03	2.32646			
4.995330E-03	2.31978			
4.995580E-03	2.31321			
4.995830E-03	2.30675			
4.996070E-03	2.30038			
4.996320E-03	2.2941			
4.996570E-03	2.28791			
4.996820E-03	2.28179			
4.997070E-03	2.27574			
4.997170E-03	2.27329			
4.997320E-03	2.27063			
4.997560E-03	2.2662			
4.997810E-03	2.26182			
4.998060E-03	2.25749			
4.998310E-03	2.2532			
4.998480E-03	2.25037			
4.998810E-03	2.24474			
4.999140E-03	2.23918			
4.999470E-03	2.23367			
4.999770E-03	2.22861			
4.999800E-03	2.22829			
5.000080E-03	2.22462			
5.000510E-03	2.21916			
5.000940E-03	2.21375			
5.001360E-03	2.20838			
5.001790E-03	2.20305			
5.002080E-03	2.19951			
5.002640E-03	2.19246			
5.003210E-03	2.18545			
5.003780E-03	2.17846			
5.004630E-03	2.16801			
5.005490E-03	2.15759			
5.006620E-03	2.14373			
5.006720E-03	2.14251			
5.008900E-03	2.12358			
5.010200E-03	2.11228			
5.012310E-03	2.10394			
5.013130E-03	2.10074			
5.014020E-03	2.10011			
5.015160E-03	2.09933			
5.016290E-03	2.09856			
5.017430E-03	2.09782			
5.018000E-03	2.09745			
5.018280E-03	2.09743			
5.019110E-03	2.09736			
5.020210E-03	2.0973			
5.021320E-03	2.09725			
5.022420E-03	2.09721			
5.024640E-03	2.09715			
5.167500E-03	2.09439			
7.259900E-03	2.05616			
9.641600E-03	2.01144			
1.179500E-02	1.97183			
1.378800E-02	1.96784			
1.484800E-02	1.96608			
1.496560E-02	1.96585			
1.496970E-02	1.96585			
1.497170E-02	1.96586			
1.497330E-02	1.96588			
1.497480E-02	1.96591			
1.497590E-02	1.96594			
1.497690E-02	1.96598			
1.497790E-02	1.96604			
1.497900E-02	1.96611			
1.498000E-02	1.96619			
1.498090E-02	1.96617			
1.498180E-02	1.96616			
1.498310E-02	1.96616			
1.498440E-02	1.96618			
1.498530E-02	1.9662			
1.498700E-02	1.96627			
1.498960E-02	1.9664			
1.500100E-02	1.96703			
1.500450E-02	1.9672			
1.500710E-02	1.96728			
1.500950E-02	1.96733			
1.501250E-02	1.96734			
1.501700E-02	1.9673			
1.502150E-02	1.96722			
1.502380E-02	1.96714			
1.502600E-02	1.96701			
1.502750E-02	1.96688			
1.502830E-02	1.96679			
1.502970E-02	1.96657			
1.503090E-02	1.96636			
1.503200E-02	1.9661			
1.503310E-02	1.96613			
1.503410E-02	1.96613			
1.503520E-02	1.96609			
1.503680E-02	1.96597			
1.503840E-02	1.96579			
1.504100E-02	1.96543			
1.504370E-02	1.96506			
1.504530E-02	1.96488			
1.504630E-02	1.96477			
1.504740E-02	1.96469			
1.504850E-02	1.96464			
1.504940E-02	1.96461			
1.505030E-02	1.9646			
1.505120E-02	1.96461			
1.505210E-02	1.96463			
1.505340E-02	1.9647			
1.505470E-02	1.96479			
1.505600E-02	1.96491			
1.505780E-02	1.96508			
1.505950E-02	1.96528			
1.506300E-02	1.96569			
1.506580E-02	1.96603			
1.506650E-02	1.96602			
1.507000E-02	1.96598			
1.507170E-02	1.96597			
1.507350E-02	1.96597			
1.507520E-02	1.96598			
1.507660E-02	1.96601			
1.507700E-02	1.96602			
1.507800E-02	1.96592			
1.507910E-02	1.96581			
1.508080E-02	1.96567			
1.508270E-02	1.96552			
1.508460E-02	1.96538			
1.508840E-02	1.96513			
1.509610E-02	1.96465			
1.510080E-02	1.96436			
1.510270E-02	1.96425			
1.510420E-02	1.96419			
1.510510E-02	1.96417			
1.510610E-02	1.96415			
1.510700E-02	1.96416			
1.510770E-02	1.96418			
1.510850E-02	1.96422			
1.510920E-02	1.96429			
1.510990E-02	1.96437			
1.511060E-02	1.96448			
1.511130E-02	1.96462			
1.511200E-02	1.96479			
1.511270E-02	1.965			
1.511350E-02	1.96524			
1.511420E-02	1.96551			
1.511490E-02	1.96582			
1.511510E-02	1.96594			
1.511560E-02	1.96584			
1.511630E-02	1.96574			
1.511700E-02	1.96566			
1.511800E-02	1.96561			
1.511890E-02	1.96561			
1.511990E-02	1.96564			
1.512130E-02	1.96576			
1.512320E-02	1.96599			
1.513040E-02	1.96711			
1.513320E-02	1.96744			
1.513510E-02	1.96755			
1.513700E-02	1.96753			
1.513870E-02	1.96737			
1.514010E-02	1.96712			
1.514140E-02	1.96674			
1.514280E-02	1.9662			
1.514350E-02	1.96584			
1.514420E-02	1.96589			
1.514490E-02	1.96585			
1.514520E-02	1.96595			
1.514560E-02	1.96603			
1.514660E-02	1.96615			
1.514760E-02	1.96613			
1.514870E-02	1.96595			
1.514900E-02	1.96584			
1.514950E-02	1.96612			
1.515060E-02	1.96653			
1.515170E-02	1.96678			
1.515270E-02	1.96689			
1.515380E-02	1.96687			
1.515540E-02	1.96665			
1.515750E-02	1.96616			
1.516020E-02	1.96548			
1.516150E-02	1.96522			
1.516250E-02	1.9651			
1.516330E-02	1.96506			
1.516410E-02	1.96508			
1.516490E-02	1.96516			
1.516570E-02	1.9653			
1.516630E-02	1.96544			
1.516690E-02	1.96563			
1.516750E-02	1.96584			
1.516760E-02	1.96581			
1.516820E-02	1.96556			
1.516880E-02	1.96534			
1.516940E-02	1.96515			
1.517010E-02	1.965			
1.517070E-02	1.96487			
1.517130E-02	1.96478			
1.517190E-02	1.96471			
1.517290E-02	1.96464			
1.517380E-02	1.96461			
1.517480E-02	1.96461			
1.517600E-02	1.96465			
1.517720E-02	1.96472			
1.517850E-02	1.96481			
1.517970E-02	1.96492			
1.518100E-02	1.96505			
1.518230E-02	1.96519			
1.518350E-02	1.96535			
1.518470E-02	1.96554			
1.518600E-02	1.96574			
1.518710E-02	1.96559			
1.518820E-02	1.96545			
1.518920E-02	1.96533			
1.519090E-02	1.96518			
1.519250E-02	1.96505			
1.519460E-02	1.9649			
1.519790E-02	1.96471			
1.522270E-02	1.96338			
1.522700E-02	1.96317			
1.522910E-02	1.96309			
1.523070E-02	1.96307			
1.523180E-02	1.96308			
1.523290E-02	1.96312			
1.523400E-02	1.96319			
1.523510E-02	1.9633			
1.523610E-02	1.96346			
1.523720E-02	1.96367			
1.523830E-02	1.96393			
1.523940E-02	1.96425			
1.524040E-02	1.96463			
1.524150E-02	1.96506			
1.524260E-02	1.96555			
1.524290E-02	1.96569			
1.524370E-02	1.96533			
1.524480E-02	1.96491			
1.524580E-02	1.96457			
1.524690E-02	1.96432			
1.524770E-02	1.9642			
1.524850E-02	1.96416			
1.524930E-02	1.96421			
1.525010E-02	1.96437			
1.525100E-02	1.96465			
1.525180E-02	1.96507			
1.525260E-02	1.96565			
1.525260E-02	1.9657			
1.525340E-02	1.96497			
1.525420E-02	1.96438			
1.525500E-02	1.96397			
1.525580E-02	1.96376			
1.525660E-02	1.96374			
1.525740E-02	1.96392			
1.525820E-02	1.9643			
1.525910E-02	1.96486			
1.525990E-02	1.96561			
1.525990E-02	1.96568			
1.526070E-02	1.96496			
1.526190E-02	1.96414			
1.526310E-02	1.96372			
1.526430E-02	1.96373			
1.526560E-02	1.9642			
1.526680E-02	1.96515			
1.526730E-02	1.96572			
1.526800E-02	1.96508			
1.526910E-02	1.9646			
1.527020E-02	1.96459			
1.527140E-02	1.96507			
1.527210E-02	1.9657			
1.527250E-02	1.96532			
1.527420E-02	1.96453			
1.527590E-02	1.96483			
1.527700E-02	1.96578			
1.527770E-02	1.96511			
1.527980E-02	1.96453			
1.528460E-02	1.96607			
1.528640E-02	1.96546			
1.528660E-02	1.96596			
1.528800E-02	1.96717			
1.528950E-02	1.96654			
1.529010E-02	1.96544			
1.529050E-02	1.96622			
1.529150E-02	1.96711			
1.529250E-02	1.96673			
1.529320E-02	1.96547			
1.529340E-02	1.96571			
1.529430E-02	1.96564			
1.529440E-02	1.96554			
1.529480E-02	1.96617			
1.529580E-02	1.96674			
1.529670E-02	1.9659			
1.529690E-02	1.96544			
1.529760E-02	1.96667			
1.529860E-02	1.96668			
1.529930E-02	1.96543			
1.529950E-02	1.96593			
1.530040E-02	1.96687			
1.530140E-02	1.96623			
1.530180E-02	1.96538			
1.530230E-02	1.96632			
1.530330E-02	1.96652			
1.530420E-02	1.96556			
1.530560E-02	1.9661			
1.530870E-02	1.96483			
1.531000E-02	1.96529			
1.531030E-02	1.96567			
1.531100E-02	1.96437			
1.531190E-02	1.96367			
1.531250E-02	1.96372			
1.531320E-02	1.96429			
1.531380E-02	1.96537			
1.531390E-02	1.9656			
1.531450E-02	1.96462			
1.531520E-02	1.96397			
1.531580E-02	1.96379			
1.531650E-02	1.96408			
1.531710E-02	1.9648			
1.531760E-02	1.9656			
1.531780E-02	1.9653			
1.531850E-02	1.9646			
1.531900E-02	1.96436			
1.531950E-02	1.96431			
1.532000E-02	1.96445			
1.532050E-02	1.96476			
1.532100E-02	1.96524			
1.532130E-02	1.96556			
1.532150E-02	1.96524			
1.532200E-02	1.96475			
1.532260E-02	1.96437			
1.532310E-02	1.96416			
1.532370E-02	1.96411			
1.532420E-02	1.96421			
1.532480E-02	1.96445			
1.532540E-02	1.96483			
1.532590E-02	1.96533			
1.532610E-02	1.96553			
1.532650E-02	1.96529			
1.532710E-02	1.96504			
1.532760E-02	1.96488			
1.532820E-02	1.96481			
1.532880E-02	1.96482			
1.532930E-02	1.9649			
1.532990E-02	1.96504			
1.533040E-02	1.96525			
1.533100E-02	1.96551			
1.533180E-02	1.9651			
1.533260E-02	1.96477			
1.533340E-02	1.96451			
1.533430E-02	1.96432			
1.533510E-02	1.96417			
1.533630E-02	1.96402			
1.533750E-02	1.96395			
1.533910E-02	1.96392			
1.534080E-02	1.96394			
1.534320E-02	1.96404			
1.534720E-02	1.96426			
1.535050E-02	1.96447			
1.535210E-02	1.9646			
1.535380E-02	1.96476			
1.535540E-02	1.96494			
1.535700E-02	1.96516			
1.535830E-02	1.96536			
1.535850E-02	1.96539			
1.535950E-02	1.9653			
1.536120E-02	1.96519			
1.536290E-02	1.9651			
1.536540E-02	1.96501			
1.536880E-02	1.96492			
1.540090E-02	1.96428			
1.540590E-02	1.96419			
1.540930E-02	1.96414			
1.541310E-02	1.9641			
1.541730E-02	1.96409			
1.542770E-02	1.96409			
1.546960E-02	1.96411			
1.547800E-02	1.96413			
1.548480E-02	1.96416			
1.558750E-02	1.96476			
1.562400E-02	1.96498			
1.565160E-02	1.96469			
1.675920E-02	1.95331			
1.824200E-02	1.93408			
2.078620E-02	1.90135			
2.172600E-02	1.88365			
2.554000E-02	1.81249			
2.818840E-02	1.78726			
2.833000E-02	1.78592			
2.933490E-02	1.77677			
3.074000E-02	1.76397			
3.158570E-02	1.75594			
3.159080E-02	1.7559			
3.159420E-02	1.75587			
3.159670E-02	1.75586			
3.159920E-02	1.75585			
3.160090E-02	1.75586			
3.160260E-02	1.75587			
3.160430E-02	1.75588			
3.160600E-02	1.7559			
3.160790E-02	1.75594			
3.160990E-02	1.75598			
3.161180E-02	1.75604			
3.161370E-02	1.7561			
3.161670E-02	1.7562			
3.162150E-02	1.75639			
3.163700E-02	1.75703			
3.164480E-02	1.75619			
3.165060E-02	1.75558			
3.165350E-02	1.75529			
3.165540E-02	1.75511			
3.165730E-02	1.75496			
3.165880E-02	1.75486			
3.166030E-02	1.75479			
3.166170E-02	1.75474			
3.166320E-02	1.75473			
3.166460E-02	1.75476			
3.166560E-02	1.7548			
3.166650E-02	1.75487			
3.166800E-02	1.755			
3.166930E-02	1.75516			
3.167060E-02	1.75536			
3.167190E-02	1.7556			
3.167320E-02	1.75587			
3.167500E-02	1.75629			
3.167650E-02	1.75668			
3.167680E-02	1.75664			
3.167850E-02	1.75642			
3.168110E-02	1.75614			
3.168380E-02	1.75595			
3.168550E-02	1.75588			
3.168720E-02	1.75587			
3.168900E-02	1.75593			
3.169080E-02	1.75609			
3.169250E-02	1.75636			
3.169350E-02	1.75658			
3.169420E-02	1.75631			
3.169600E-02	1.75581			
3.169780E-02	1.75545			
3.169960E-02	1.75522			
3.170190E-02	1.75511			
3.170490E-02	1.75521			
3.171500E-02	1.75612			
3.171900E-02	1.75632			
3.172420E-02	1.75522			
3.172810E-02	1.75471			
3.173070E-02	1.75471			
3.173340E-02	1.75502			
3.174000E-02	1.75633			
3.174200E-02	1.75639			
3.174400E-02	1.75605			
3.174590E-02	1.75697			
3.174780E-02	1.75737			
3.174960E-02	1.75723			
3.175150E-02	1.75655			
3.175250E-02	1.75592			
3.175340E-02	1.75643			
3.175520E-02	1.75704			
3.175710E-02	1.75716			
3.175900E-02	1.75681			
3.176090E-02	1.75599			
3.176100E-02	1.7559			
3.176270E-02	1.75666			
3.176460E-02	1.75704			
3.176650E-02	1.75703			
3.176930E-02	1.75648			
3.177470E-02	1.75491			
3.177740E-02	1.75441			
3.178020E-02	1.75424			
3.178500E-02	1.75442			
3.179050E-02	1.75477			
3.179260E-02	1.75504			
3.179390E-02	1.75532			
3.179500E-02	1.75564			
3.179530E-02	1.75545			
3.179650E-02	1.75486			
3.179750E-02	1.75445			
3.179850E-02	1.75414			
3.179950E-02	1.75392			
3.180050E-02	1.75381			
3.180120E-02	1.75378			
3.180200E-02	1.75381			
3.180280E-02	1.75389			
3.180350E-02	1.75402			
3.180420E-02	1.75419			
3.180500E-02	1.75441			
3.180570E-02	1.75466			
3.180650E-02	1.75496			
3.180750E-02	1.7554			
3.180780E-02	1.75553			
3.180850E-02	1.75528			
3.180950E-02	1.75499			
3.181050E-02	1.75475			
3.181150E-02	1.75455			
3.181270E-02	1.75435			
3.181370E-02	1.75421			
3.181470E-02	1.7541			
3.181600E-02	1.75399			
3.181740E-02	1.75391			
3.181870E-02	1.75386			
3.182010E-02	1.75383			
3.182210E-02	1.75382			
3.182410E-02	1.75385			
3.182680E-02	1.75391			
3.183080E-02	1.75403			
3.184020E-02	1.75436			
3.184430E-02	1.75452			
3.184690E-02	1.75463			
3.184960E-02	1.75475			
3.185230E-02	1.75489			
3.185430E-02	1.75501			
3.185500E-02	1.75505			
3.185610E-02	1.75501			
3.185830E-02	1.75494			
3.186050E-02	1.75488			
3.186380E-02	1.75481			
3.186710E-02	1.75476			
3.187260E-02	1.75468			
3.212380E-02	1.75181			
3.213260E-02	1.75172			
3.213860E-02	1.75166			
3.214640E-02	1.75159			
3.233080E-02	1.75025			
3.234060E-02	1.75017			
3.234410E-02	1.75014			
3.355060E-02	1.73886			
3.365100E-02	1.73792			
3.508870E-02	1.72526			
3.598500E-02	1.71736			
3.661010E-02	1.71179			
3.724020E-02	1.65043			
3.724810E-02	1.64967			
3.725580E-02	1.64894			
3.726710E-02	1.64787			
3.748170E-02	1.62781			
3.748920E-02	1.62711			
3.749830E-02	1.62629			
3.751410E-02	1.62489			
3.765140E-02	1.61283			
3.766200E-02	1.61188			
3.767340E-02	1.61084			
3.774160E-02	1.60451			
3.774870E-02	1.60384			
3.775300E-02	1.60341			
3.775930E-02	1.60277			
3.776560E-02	1.6021			
3.783470E-02	1.59463			
3.784050E-02	1.594			
3.784720E-02	1.59335			
3.785350E-02	1.59274			
3.794770E-02	1.58376			
3.795970E-02	1.58263			
3.803800E-02	1.57537			
3.811980E-02	1.58546			
3.812840E-02	1.58653			
3.813270E-02	1.58707			
3.813700E-02	1.58762			
3.814180E-02	1.58825			
3.814660E-02	1.58889			
3.816250E-02	1.59107			
3.832820E-02	1.61373			
3.833780E-02	1.61502			
3.834330E-02	1.61573			
3.834560E-02	1.61603			
3.835480E-02	1.61718			
3.847190E-02	1.6317			
3.847770E-02	1.63242			
3.848110E-02	1.63286			
3.848570E-02	1.63348			
3.848980E-02	1.63406			
3.849350E-02	1.63459			
3.849900E-02	1.63542			
3.850990E-02	1.63712			
3.856480E-02	1.64572			
3.856830E-02	1.64627			
3.857030E-02	1.64814			
3.857390E-02	1.65158			
3.857680E-02	1.65427			
3.857760E-02	1.65629			
3.858030E-02	1.66304			
3.858310E-02	1.66983			
3.858420E-02	1.67271			
3.858670E-02	1.68307			
3.859220E-02	1.70589			
3.859390E-02	1.71284			
3.859770E-02	1.73219			
3.860040E-02	1.74607			
3.860320E-02	1.75989			
3.860590E-02	1.77347			
3.860850E-02	1.78661			
3.861160E-02	1.80187			
3.861550E-02	1.82142			
3.862250E-02	1.85613			
3.862470E-02	1.867			
3.862780E-02	1.88227			
3.863040E-02	1.89542			
3.863300E-02	1.90864			
3.863540E-02	1.92097			
3.863790E-02	1.93337			
3.864030E-02	1.94581			
3.864400E-02	1.96456			
3.864760E-02	1.98337			
3.866230E-02	2.05874			
3.866960E-02	2.09635			
3.867110E-02	2.10436			
3.867580E-02	2.135			
3.867920E-02	2.1569			
3.868340E-02	2.19443			
3.868400E-02	2.19938			
3.869070E-02	2.27494			
3.869300E-02	2.30701			
3.869680E-02	2.35995			
3.870060E-02	2.41299			
3.870180E-02	2.42911			
3.870440E-02	2.46788			
3.870820E-02	2.52367			
3.871200E-02	2.57962			
3.871580E-02	2.63567			
3.872160E-02	2.7199			
3.872730E-02	2.80426			
3.873300E-02	2.88878			
3.873810E-02	2.96469			
3.874200E-02	3.02177			
3.874580E-02	3.07902			
3.874970E-02	3.13653			
3.875220E-02	3.17506			
3.875480E-02	3.21377			
3.875860E-02	3.27216			
3.876090E-02	3.30655			
3.876380E-02	3.35805			
3.876530E-02	3.38551			
3.876820E-02	3.45021			
3.877020E-02	3.50385			
3.877120E-02	3.53147			
3.877400E-02	3.63264			
3.877410E-02	3.63597			
3.877630E-02	3.73303			
3.877750E-02	3.79574			
3.877850E-02	3.8478			
3.878100E-02	4.00143			
3.878140E-02	4.0283			
3.878440E-02	4.2365			
3.879020E-02	4.70126			
3.879150E-02	4.79864			
3.879470E-02	5.04474			
3.879760E-02	5.24731			
3.879850E-02	5.29954			
3.880050E-02	5.41664			
3.880290E-02	5.52445			
3.880550E-02	5.61319			
3.880560E-02	5.61531			
3.880820E-02	5.67527			
3.880900E-02	5.6851			
3.881090E-02	5.70939			
3.881250E-02	5.71668			
3.881450E-02	5.72547			
3.881600E-02	5.72204			
3.881980E-02	5.71306			
3.882130E-02	5.7029			
3.882650E-02	5.66522			
3.882690E-02	5.66205			
3.883050E-02	5.61781			
3.883200E-02	5.58893			
3.883410E-02	5.54902			
3.883760E-02	5.44335			
3.883800E-02	5.428			
3.884030E-02	5.33369			
3.884200E-02	5.24634			
3.884300E-02	5.19652			
3.884600E-02	5.00844			
3.884650E-02	4.9754			
3.884990E-02	4.73795			
3.885370E-02	4.46226			
3.885540E-02	4.34198			
3.885760E-02	4.20016			
3.885900E-02	4.11085			
3.886150E-02	3.96973			
3.886210E-02	3.93791			
3.886510E-02	3.7895			
3.886540E-02	3.77911			
3.886820E-02	3.66199			
3.886930E-02	3.62315			
3.887130E-02	3.54986			
3.887510E-02	3.426			
3.887740E-02	3.35083			
3.888480E-02	3.12873			
3.889250E-02	2.89569			
3.889270E-02	2.89006			
3.889830E-02	2.73187			
3.889880E-02	2.71783			
3.890220E-02	2.63417			
3.890340E-02	2.60404			
3.890610E-02	2.54823			
3.890650E-02	2.53973			
3.890950E-02	2.48789			
3.891010E-02	2.47804			
3.891250E-02	2.4473			
3.891420E-02	2.42539			
3.891550E-02	2.41405			
3.891840E-02	2.3883			
3.891850E-02	2.38761			
3.892150E-02	2.3688			
3.892450E-02	2.35011			
3.892460E-02	2.34934			
3.892750E-02	2.33483			
3.893050E-02	2.31982			
3.893320E-02	2.3065			
3.893670E-02	2.289			
3.894030E-02	2.27167			
3.894390E-02	2.25447			
3.895100E-02	2.22023			
3.896290E-02	2.16333			
3.897000E-02	2.12926			
3.897710E-02	2.09528			
3.898900E-02	2.03876			
3.900320E-02	1.97102			
3.901330E-02	1.92324			
3.901860E-02	1.89806			
3.902390E-02	1.87292			
3.902790E-02	1.85411			
3.902850E-02	1.85124			
3.903190E-02	1.83792			
3.903590E-02	1.82225			
3.903680E-02	1.81852			
3.903990E-02	1.81093			
3.904390E-02	1.801			
3.904440E-02	1.7997			
3.905050E-02	1.79411			
3.905450E-02	1.79045			
3.907710E-02	1.7874			
3.908500E-02	1.78635			
3.908900E-02	1.78584			
3.909300E-02	1.78536			
3.909790E-02	1.78481			
3.910280E-02	1.78428			
3.910610E-02	1.78395			
3.911930E-02	1.78264			
3.929320E-02	1.7654			
3.930300E-02	1.76444			
3.931370E-02	1.76341			
3.946330E-02	1.74927			
3.947400E-02	1.74826			
3.949620E-02	1.7462			
3.994300E-02	1.70478			
4.018300E-02	1.69454			
4.096900E-02	1.66104			
4.320900E-02	1.48794			
4.596200E-02	1.31161			
4.760600E-02	1.2061			
5.063600E-02	0.888153			
5.076300E-02	0.866169			
5.226600E-02	0.606291			
5.292940E-02	0.418378			
5.294110E-02	0.415054			
5.294950E-02	0.412693			
5.295700E-02	0.410588			
5.297690E-02	0.404984			
5.328700E-02	0.317694			
5.354420E-02	0.237988			
5.356700E-02	0.230915			
5.375260E-02	0.16358			
5.376190E-02	0.160891			
5.377220E-02	0.159124			
5.378660E-02	0.158241			
5.398060E-02	0.152237			
5.399140E-02	0.152573			
5.399850E-02	0.153489			
5.400890E-02	0.155857			
5.420610E-02	0.213431			
5.421600E-02	0.216348			
5.422450E-02	0.218837			
5.422490E-02	0.21901			
5.423140E-02	0.221463			
5.423670E-02	0.224263			
5.423840E-02	0.225173			
5.424360E-02	0.229072			
5.424880E-02	0.234004			
5.425570E-02	0.241826			
5.429400E-02	0.290286			
5.442610E-02	0.459441			
5.443650E-02	0.475512			
5.444340E-02	0.488697			
5.445340E-02	0.512011			
5.464160E-02	0.998782			
5.465160E-02	1.02825			
5.466170E-02	1.06323			
5.468160E-02	1.14461			
5.470630E-02	1.2484			
5.471810E-02	1.29774			
5.472700E-02	1.3351			
5.474190E-02	1.39787			
5.484800E-02	1.8451			
5.485800E-02	1.89301			
5.486470E-02	1.93448			
5.487060E-02	1.98251			
5.487860E-02	2.06212			
5.489440E-02	2.248			
5.502120E-02	3.78279			
5.503170E-02	3.92278			
5.504000E-02	4.05355			
5.504220E-02	4.08859			
5.505790E-02	4.38032			
5.518830E-02	6.9304			
5.519620E-02	7.10566			
5.520400E-02	7.32117			
5.521070E-02	7.54757			
5.521740E-02	7.80585			
5.529090E-02	10.9123			
5.529900E-02	11.2745			
5.530430E-02	11.5132			
5.531100E-02	11.8568			
5.531990E-02	12.3803			
5.533600E-02	13.4291			
5.533780E-02	13.5475			
5.542150E-02	19.1372			
5.544060E-02	20.4125			
5.545000E-02	21.1179			
5.545400E-02	21.4179			
5.546590E-02	22.4733			
5.554890E-02	30.6027			
5.554900E-02	30.615			
5.556300E-02	32.0788			
5.557690E-02	33.5294			
5.558950E-02	34.8493			
5.560300E-02	36.4363			
5.564690E-02	42.147			
5.565700E-02	43.2902			
5.566890E-02	44.3374			
5.568670E-02	45.5774			
5.570450E-02	46.5348			
5.571100E-02	46.8103			
5.574010E-02	48.0446			
5.574800E-02	48.1752			
5.575050E-02	48.2169			
5.575720E-02	48.1142			
5.576760E-02	47.6659			
5.578310E-02	46.6867			
5.579350E-02	45.8555			
5.583500E-02	41.8992			
5.585300E-02	40.4842			
5.585900E-02	40.0496			
5.589800E-02	37.2248			
5.590700E-02	36.6346			
5.593070E-02	35.3361			
5.600200E-02	31.6797			
5.609800E-02	26.3282			
5.612350E-02	25.0807			
5.613840E-02	24.3492			
5.620210E-02	21.2287			
5.621700E-02	20.57			
5.623270E-02	20.0188			
5.631140E-02	17.5879			
5.637360E-02	15.6676			
5.638400E-02	15.3881			
5.639810E-02	15.091			
5.652920E-02	12.7854			
5.654200E-02	12.5601			
5.655750E-02	12.288			
5.659590E-02	11.6127			
5.661000E-02	11.3882			
5.663240E-02	11.114			
5.676660E-02	9.6238			
5.678900E-02	9.39487			
5.681210E-02	9.2314			
5.715800E-02	7.07933			
5.719170E-02	6.93617			
5.720200E-02	6.89235			
5.722900E-02	6.77768			
5.742650E-02	5.93893			
5.751600E-02	5.57069			
5.773650E-02	5.12461			
5.795700E-02	4.69179			
5.801200E-02	4.6383			
5.806600E-02	4.5858			
5.847550E-02	4.18817			
5.859300E-02	4.07408			
5.932900E-02	3.43945			
5.970400E-02	3.23834			
6.027200E-02	2.93387			
6.138800E-02	2.70157			
6.266600E-02	2.52792			
6.390400E-02	2.33552			
6.415100E-02	2.29715			
6.466880E-02	2.24496			
6.468400E-02	2.24343			
6.469620E-02	2.24222			
6.496430E-02	2.21572			
6.497350E-02	2.21482			
6.497950E-02	2.21424			
6.498410E-02	2.21381			
6.498870E-02	2.2134			
6.499330E-02	2.213			
6.500090E-02	2.21235			
6.501310E-02	2.21134			
6.505570E-02	2.20784			
6.506490E-02	2.20711			
6.507090E-02	2.20664			
6.507400E-02	2.20642			
6.507610E-02	2.20615			
6.508250E-02	2.20536			
6.509100E-02	2.20433			
6.511650E-02	2.20133			
6.512710E-02	2.2001			
6.513350E-02	2.19941			
6.513780E-02	2.19898			
6.514200E-02	2.19859			
6.514660E-02	2.19822			
6.515120E-02	2.19788			
6.515730E-02	2.19749			
6.517260E-02	2.1966			
6.520080E-02	2.19498			
6.521540E-02	2.19408			
6.522270E-02	2.19356			
6.522760E-02	2.19315			
6.523240E-02	2.19268			
6.523970E-02	2.19186			
6.524950E-02	2.19061			
6.525920E-02	2.18928			
6.526660E-02	2.1882			
6.526900E-02	2.18782			
6.527630E-02	2.18746			
6.528360E-02	2.18701			
6.529090E-02	2.18646			
6.529640E-02	2.18598			
6.530190E-02	2.18542			
6.530920E-02	2.18457			
6.532020E-02	2.18316			
6.533120E-02	2.18167			
6.533200E-02	2.18155			
6.533850E-02	2.18102			
6.534940E-02	2.18004			
6.536950E-02	2.17816			
6.537500E-02	2.17768			
6.537870E-02	2.17739			
6.538230E-02	2.17713			
6.538600E-02	2.17691			
6.538920E-02	2.17652			
6.539240E-02	2.17617			
6.539660E-02	2.17573			
6.540090E-02	2.17533			
6.540720E-02	2.17477			
6.542850E-02	2.17297			
6.544130E-02	2.1719			
6.544760E-02	2.17138			
6.545400E-02	2.17088			
6.546050E-02	2.1704			
6.546710E-02	2.16993			
6.548020E-02	2.16903			
6.549000E-02	2.16837			
6.549660E-02	2.16795			
6.550150E-02	2.16765			
6.550300E-02	2.16756			
6.550640E-02	2.16726			
6.551130E-02	2.16684			
6.551620E-02	2.16644			
6.552600E-02	2.16565			
6.587300E-02	2.13808			
6.677200E-02	2.06708			
6.692230E-02	2.10329			
6.692750E-02	2.10455			
6.693480E-02	2.10631			
6.694290E-02	2.10827			
6.695460E-02	2.11112			
6.729230E-02	2.19372			
6.729770E-02	2.1968			
6.730740E-02	2.20241			
6.731310E-02	2.20573			
6.731320E-02	2.20584			
6.731910E-02	2.21111			
6.732490E-02	2.21641			
6.732880E-02	2.21995			
6.733660E-02	2.22705			
6.737560E-02	2.26265			
6.741460E-02	2.29825			
6.742240E-02	2.30539			
6.742630E-02	2.30898			
6.743020E-02	2.3126			
6.743410E-02	2.31624			
6.743800E-02	2.31993			
6.744200E-02	2.32378			
6.744610E-02	2.32767			
6.745140E-02	2.33292			
6.745680E-02	2.3382			
6.746220E-02	2.34352			
6.746760E-02	2.34889			
6.747050E-02	2.35186			
6.747160E-02	2.35277			
6.747560E-02	2.35617			
6.747970E-02	2.35966			
6.748370E-02	2.36326			
6.748780E-02	2.36696			
6.749190E-02	2.37074			
6.749730E-02	2.37586			
6.750820E-02	2.38623			
6.753550E-02	2.41244			
6.754080E-02	2.41637			
6.754760E-02	2.42151			
6.755170E-02	2.42472			
6.755580E-02	2.42813			
6.755850E-02	2.43056			
6.756120E-02	2.43316			
6.756390E-02	2.43597			
6.756660E-02	2.43901			
6.756910E-02	2.44197			
6.757130E-02	2.44478			
6.757360E-02	2.44799			
6.757460E-02	2.44872			
6.757780E-02	2.45159			
6.758220E-02	2.45577			
6.758770E-02	2.46139			
6.759050E-02	2.46442			
6.760080E-02	2.4816			
6.760460E-02	2.48795			
6.761300E-02	2.51911			
6.761390E-02	2.5246			
6.761830E-02	2.55052			
6.762140E-02	2.56936			
6.762270E-02	2.57868			
6.762600E-02	2.60364			
6.762920E-02	2.62926			
6.763250E-02	2.65571			
6.763580E-02	2.68314			
6.763900E-02	2.71073			
6.764200E-02	2.73749			
6.764600E-02	2.77406			
6.765570E-02	2.86393			
6.765800E-02	2.88454			
6.766090E-02	2.91809			
6.766360E-02	2.94958			
6.766780E-02	3.00982			
6.766780E-02	3.01119			
6.767210E-02	3.08921			
6.767630E-02	3.18779			
6.767630E-02	3.18961			
6.768050E-02	3.31179			
6.768150E-02	3.34654			
6.768330E-02	3.41024			
6.768490E-02	3.47537			
6.768610E-02	3.52339			
6.768840E-02	3.62743			
6.768890E-02	3.65366			
6.769180E-02	3.80446			
6.769180E-02	3.80835			
6.769460E-02	3.98041			
6.769670E-02	4.1308			
6.769700E-02	4.15447			
6.769880E-02	4.29978			
6.770090E-02	4.48801			
6.770210E-02	4.60973			
6.770300E-02	4.69632			
6.770530E-02	4.94047			
6.770750E-02	5.20501			
6.770900E-02	5.39412			
6.771050E-02	5.58338			
6.771800E-02	6.56445			
6.771910E-02	6.69725			
6.772100E-02	6.91793			
6.772330E-02	7.14819			
6.772420E-02	7.2279			
6.772550E-02	7.33881			
6.772790E-02	7.49101			
6.772920E-02	7.54714			
6.772970E-02	7.56642			
6.773150E-02	7.60526			
6.773240E-02	7.61087			
6.773420E-02	7.59407			
6.773430E-02	7.5922			
6.773610E-02	7.53883			
6.773790E-02	7.44689			
6.773940E-02	7.34162			
6.773970E-02	7.3195			
6.774150E-02	7.15804			
6.774330E-02	6.96624			
6.774600E-02	6.62937			
6.774610E-02	6.61616			
6.774870E-02	6.24473			
6.775290E-02	5.60874			
6.775330E-02	5.54586			
6.775720E-02	4.92719			
6.775790E-02	4.82583			
6.775980E-02	4.55751			
6.776160E-02	4.29769			
6.776300E-02	4.12065			
6.776350E-02	4.05594			
6.776540E-02	3.83353			
6.776690E-02	3.66435			
6.776770E-02	3.58484			
6.776880E-02	3.48021			
6.777070E-02	3.31644			
6.777250E-02	3.17739			
6.777260E-02	3.17255			
6.777440E-02	3.04614			
6.777630E-02	2.9367			
6.777730E-02	2.88962			
6.777820E-02	2.842			
6.778010E-02	2.76038			
6.778190E-02	2.69078			
6.778200E-02	2.68881			
6.778380E-02	2.63064			
6.778570E-02	2.57969			
6.778680E-02	2.55642			
6.778850E-02	2.51694			
6.779130E-02	2.46838			
6.779150E-02	2.46596			
6.779410E-02	2.43024			
6.779630E-02	2.4096			
6.779750E-02	2.39643			
6.780050E-02	2.37476			
6.780100E-02	2.3725			
6.780280E-02	2.36225			
6.780580E-02	2.35152			
6.780660E-02	2.34783			
6.781050E-02	2.33906			
6.781120E-02	2.3372			
6.781530E-02	2.33248			
6.781720E-02	2.3292			
6.782000E-02	2.32823			
6.782590E-02	2.32321			
6.782630E-02	2.32272			
6.783190E-02	2.32039			
6.783900E-02	2.31467			
6.784500E-02	2.3098			
6.784800E-02	2.30855			
6.785000E-02	2.3085			
6.785060E-02	2.30871			
6.785200E-02	2.307			
6.785400E-02	2.30553			
6.785560E-02	2.30507			
6.785660E-02	2.30521			
6.785740E-02	2.30392			
6.785920E-02	2.30167			
6.786090E-02	2.30022			
6.786270E-02	2.29951			
6.786450E-02	2.2995			
6.786570E-02	2.29991			
6.786630E-02	2.2992			
6.786810E-02	2.29749			
6.786930E-02	2.29661			
6.787160E-02	2.29538			
6.787400E-02	2.29471			
6.787480E-02	2.29463			
6.787640E-02	2.29308			
6.787880E-02	2.29107			
6.788230E-02	2.28854			
6.788470E-02	2.28715			
6.788710E-02	2.28598			
6.788940E-02	2.28503			
6.789180E-02	2.28433			
6.789300E-02	2.2841			
6.789420E-02	2.28296			
6.789660E-02	2.28091			
6.789890E-02	2.27908			
6.790130E-02	2.27747			
6.790370E-02	2.27603			
6.790610E-02	2.27475			
6.790840E-02	2.2736			
6.791200E-02	2.27207			
6.791560E-02	2.27074			
6.791680E-02	2.27035			
6.791790E-02	2.26962			
6.792030E-02	2.26824			
6.792150E-02	2.2676			
6.792270E-02	2.26679			
6.792510E-02	2.26529			
6.792680E-02	2.26424			
6.792860E-02	2.26327			
6.793040E-02	2.26237			
6.793100E-02	2.26209			
6.793230E-02	2.26098			
6.793420E-02	2.2594			
6.793610E-02	2.2579			
6.793800E-02	2.25648			
6.793990E-02	2.25513			
6.794180E-02	2.25384			
6.794370E-02	2.25261			
6.794620E-02	2.25103			
6.794870E-02	2.24952			
6.795120E-02	2.24805			
6.795630E-02	2.24518			
6.796640E-02	2.23957			
6.807280E-02	2.18091			
6.808030E-02	2.17674			
6.808540E-02	2.17397			
6.809050E-02	2.17122			
6.809550E-02	2.16851			
6.810050E-02	2.16583			
6.810800E-02	2.16189			
6.810810E-02	2.16189			
6.812320E-02	2.16128			
6.823390E-02	2.15694			
6.824650E-02	2.15646			
6.825400E-02	2.15619			
6.826140E-02	2.15594			
6.827380E-02	2.15555			
6.952100E-02	2.11806			
7.046670E-02	2.07707			
7.048460E-02	2.0763			
7.049350E-02	2.07592			
7.050240E-02	2.07556			
7.051580E-02	2.07505			
7.063620E-02	2.07047			
7.064960E-02	2.06997			
7.065630E-02	2.06974			
7.066300E-02	2.06953			
7.066920E-02	2.0691			
7.067550E-02	2.06868			
7.068800E-02	2.06788			
7.074110E-02	2.06453			
7.075050E-02	2.06396			
7.075670E-02	2.06361			
7.076300E-02	2.0633			
7.076790E-02	2.06309			
7.077280E-02	2.06291			
7.078250E-02	2.0626			
7.081660E-02	2.06163			
7.082390E-02	2.06145			
7.082880E-02	2.06136			
7.083370E-02	2.06131			
7.083860E-02	2.06133			
7.084370E-02	2.06141			
7.085710E-02	2.06178			
7.086120E-02	2.06184			
7.086520E-02	2.06184			
7.086920E-02	2.06175			
7.087330E-02	2.06159			
7.087730E-02	2.06133			
7.088000E-02	2.06112			
7.088400E-02	2.06072			
7.088810E-02	2.06077			
7.089210E-02	2.06075			
7.089620E-02	2.06066			
7.090230E-02	2.06045			
7.090840E-02	2.06014			
7.091240E-02	2.05987			
7.091650E-02	2.05956			
7.092060E-02	2.05918			
7.092460E-02	2.05876			
7.093070E-02	2.05804			
7.093880E-02	2.05707			
7.094290E-02	2.05663			
7.094600E-02	2.05635			
7.094900E-02	2.0561			
7.095170E-02	2.05593			
7.095440E-02	2.05579			
7.095710E-02	2.05569			
7.095970E-02	2.05561			
7.096380E-02	2.05554			
7.096780E-02	2.0555			
7.097320E-02	2.05548			
7.097860E-02	2.05549			
7.098390E-02	2.05553			
7.098930E-02	2.05558			
7.099200E-02	2.05562			
7.099360E-02	2.05551			
7.099830E-02	2.05518			
7.100310E-02	2.05488			
7.101100E-02	2.05441			
7.103000E-02	2.05332			
7.104590E-02	2.05243			
7.105220E-02	2.05208			
7.105850E-02	2.05174			
7.106490E-02	2.05143			
7.107120E-02	2.05113			
7.108070E-02	2.05071			
7.114410E-02	2.04803			
7.180300E-02	2.02015			
7.377900E-02	1.93698			
7.568800E-02	1.85628			
7.850700E-02	1.74794			
7.926300E-02	1.71907			
8.316000E-02	1.64673			
8.534190E-02	1.58885			
8.543700E-02	1.58632			
8.648190E-02	1.55863			
8.649620E-02	1.55825			
8.650340E-02	1.55807			
8.651060E-02	1.5579			
8.651540E-02	1.55779			
8.652260E-02	1.55764			
8.652980E-02	1.5575			
8.654900E-02	1.55713			
8.663520E-02	1.5555			
8.664480E-02	1.55533			
8.664960E-02	1.55525			
8.665440E-02	1.55519			
8.665800E-02	1.55515			
8.666160E-02	1.55513			
8.666400E-02	1.55512			
8.666580E-02	1.55504			
8.666930E-02	1.5549			
8.667460E-02	1.5547			
8.667810E-02	1.55458			
8.668520E-02	1.55436			
8.670640E-02	1.55376			
8.674870E-02	1.55257			
8.675580E-02	1.55238			
8.676290E-02	1.55223			
8.676820E-02	1.55216			
8.677170E-02	1.55214			
8.677520E-02	1.55216			
8.677700E-02	1.55218			
8.677900E-02	1.55203			
8.678310E-02	1.55176			
8.678720E-02	1.55154			
8.679330E-02	1.55126			
8.680140E-02	1.55094			
8.681360E-02	1.55052			
8.682170E-02	1.55028			
8.682780E-02	1.55016			
8.683180E-02	1.55015			
8.683590E-02	1.5502			
8.684000E-02	1.55033			
8.684200E-02	1.55044			
8.684400E-02	1.5502			
8.684810E-02	1.54982			
8.685220E-02	1.54952			
8.685830E-02	1.54919			
8.686840E-02	1.54882			
8.688260E-02	1.54844			
8.689280E-02	1.5483			
8.689890E-02	1.54837			
8.690500E-02	1.54863			
8.690700E-02	1.5488			
8.691190E-02	1.54859			
8.691920E-02	1.54858			
8.693630E-02	1.54896			
8.694360E-02	1.54889			
8.695060E-02	1.54856			
8.695990E-02	1.54772			
8.696350E-02	1.54729			
8.698760E-02	1.5475			
8.700610E-02	1.54811			
8.701310E-02	1.54794			
8.701770E-02	1.54744			
8.702280E-02	1.54642			
8.702570E-02	1.5456			
8.702640E-02	1.54561			
8.702850E-02	1.54546			
8.703140E-02	1.54591			
8.703710E-02	1.54622			
8.704270E-02	1.54597			
8.704840E-02	1.5453			
8.705410E-02	1.54434			
8.706830E-02	1.54435			
8.707400E-02	1.54411			
8.707690E-02	1.54381			
8.707970E-02	1.54439			
8.708400E-02	1.54489			
8.708820E-02	1.54501			
8.709250E-02	1.54474			
8.709680E-02	1.54416			
8.709960E-02	1.54365			
8.710670E-02	1.54247			
8.711100E-02	1.54195			
8.711430E-02	1.54174			
8.711750E-02	1.54171			
8.712070E-02	1.54186			
8.712400E-02	1.54216			
8.712730E-02	1.54259			
8.712890E-02	1.54287			
8.713210E-02	1.54246			
8.713700E-02	1.54201			
8.714090E-02	1.54178			
8.714490E-02	1.54166			
8.714750E-02	1.54166			
8.715010E-02	1.54174			
8.715270E-02	1.54191			
8.715470E-02	1.5421			
8.715570E-02	1.54222			
8.715670E-02	1.54204			
8.715870E-02	1.54171			
8.716100E-02	1.54143			
8.716320E-02	1.54123			
8.716550E-02	1.54109			
8.716770E-02	1.54102			
8.717000E-02	1.541			
8.717220E-02	1.54103			
8.717450E-02	1.54111			
8.717750E-02	1.54125			
8.718050E-02	1.54144			
8.718250E-02	1.54158			
8.718500E-02	1.54148			
8.719100E-02	1.54129			
8.722400E-02	1.54036			
8.723600E-02	1.54004			
8.724200E-02	1.53991			
8.724650E-02	1.53982			
8.725100E-02	1.53975			
8.725400E-02	1.53972			
8.725590E-02	1.53963			
8.725970E-02	1.53946			
8.726350E-02	1.5393			
8.726920E-02	1.53909			
8.727670E-02	1.53884			
8.728430E-02	1.53861			
8.771630E-02	1.5255			
8.772380E-02	1.52528			
8.773140E-02	1.52506			
8.773710E-02	1.52489			
8.774270E-02	1.52474			
8.774630E-02	1.52464			
8.775360E-02	1.52445			
8.776280E-02	1.52422			
8.867500E-02	1.5013			
9.021470E-02	1.46232			
9.503000E-02	1.33626			
1.002200E-01	1.23144			
1.059900E-01	1.1152			
1.190200E-01	0.789956			
1.252470E-01	0.634591			
1.316300E-01	0.480067			
1.329600E-01	0.447858			
1.394400E-01	0.327775			
1.416900E-01	0.286			
1.443700E-01	0.228272			
1.464660E-01	0.1923			
1.464900E-01	0.191884			
1.465190E-01	0.191392			
1.469000E-01	0.184974			
1.471080E-01	0.183714			
1.471180E-01	0.183651			
1.471260E-01	0.183614			
1.471330E-01	0.183582			
1.471380E-01	0.183563			
1.471400E-01	0.183559			
1.471440E-01	0.183525			
1.471510E-01	0.18347			
1.471580E-01	0.18342			
1.471690E-01	0.183354			
1.472890E-01	0.182684			
1.473910E-01	0.182119			
1.474090E-01	0.18203			
1.474200E-01	0.18199			
1.474300E-01	0.181913			
1.474400E-01	0.181846			
1.475200E-01	0.181383			
1.475600E-01	0.181163			
1.475750E-01	0.181109			
1.475800E-01	0.181105			
1.475880E-01	0.181039			
1.476040E-01	0.180952			
1.476820E-01	0.180649			
1.476940E-01	0.180574			
1.477020E-01	0.180494			
1.477100E-01	0.180377			
1.477180E-01	0.180382			
1.477250E-01	0.180356			
1.477320E-01	0.180309			
1.477500E-01	0.180147			
1.477550E-01	0.180142			
1.477720E-01	0.18009			
1.477800E-01	0.180034			
1.477890E-01	0.179941			
1.477900E-01	0.179921			
1.477970E-01	0.179938			
1.478060E-01	0.17992			
1.478170E-01	0.179854			
1.478680E-01	0.179445			
1.478790E-01	0.179376			
1.478870E-01	0.179346			
1.478950E-01	0.179343			
1.478970E-01	0.17932			
1.479040E-01	0.179256			
1.479170E-01	0.179159			
1.479660E-01	0.178894			
1.479790E-01	0.178825			
1.479900E-01	0.178783			
1.480000E-01	0.178757			
1.480080E-01	0.178684			
1.480170E-01	0.178623			
1.480340E-01	0.17852			
1.481460E-01	0.177892			
1.481600E-01	0.177819			
1.481690E-01	0.177782			
1.481770E-01	0.177753			
1.481800E-01	0.177747			
1.481830E-01	0.177725			
1.481910E-01	0.177667			
1.482000E-01	0.177618			
1.482140E-01	0.177548			
1.484500E-01	0.176454			
1.485060E-01	0.177945			
1.485230E-01	0.178394			
1.485340E-01	0.178696			
1.485480E-01	0.179072			
1.485560E-01	0.179297			
1.485890E-01	0.180208			
1.497520E-01	0.212592			
1.498500E-01	0.215321			
1.499900E-01	0.219215			
1.502100E-01	0.225538			
1.521800E-01	0.335176			
1.547900E-01	0.494281			
1.550100E-01	0.515445			
1.576100E-01	0.766004			
1.580300E-01	0.83045			
1.592900E-01	1.02416			
1.594700E-01	1.05183			
1.604250E-01	1.1979			
1.613800E-01	1.34397			
1.645600E-01	2.07383			
1.647800E-01	2.12438			
1.678700E-01	3.20835			
1.693400E-01	4.01938			
1.705400E-01	4.68136			
1.730000E-01	6.36799			
1.733200E-01	6.58745			
1.752300E-01	7.96735			
1.762000E-01	8.66789			
1.790800E-01	10.9427			
1.796900E-01	11.388			
1.808300E-01	12.2201			
1.825600E-01	13.162			
1.825800E-01	13.1729			
1.843300E-01	13.9309			
1.855900E-01	14.1677			
1.862900E-01	14.2991			
1.886990E-01	14.2369			
1.895750E-01	14.2142			
1.942100E-01	13.2178			
1.953000E-01	12.9447			
1.974100E-01	12.416			
2.008000E-01	11.398			
2.039000E-01	10.6093			
2.052300E-01	10.2711			
2.096500E-01	9.33954			
2.158500E-01	8.41992			
2.187100E-01	7.99587			
2.230300E-01	7.43266			
2.271500E-01	7.10414			
2.404300E-01	6.04562			
2.440400E-01	5.82978			
2.480400E-01	5.59069			
2.612400E-01	5.12288			
2.724200E-01	4.72675			
2.797100E-01	4.57323			
2.850500E-01	4.46081			
2.932500E-01	4.32195			
2.966300E-01	4.26462			
2.972320E-01	4.25462			
2.973320E-01	4.25295			
2.973570E-01	4.25254			
2.973820E-01	4.25214			
2.976330E-01	4.24826			
2.976670E-01	4.24775			
2.976830E-01	4.2475			
2.976960E-01	4.24734			
2.977090E-01	4.24719			
2.977180E-01	4.2471			
2.977350E-01	4.24693			
2.978050E-01	4.24634			
2.979620E-01	4.24503			
2.979800E-01	4.2449			
2.979930E-01	4.24471			
2.981080E-01	4.24313			
2.983640E-01	4.23964			
2.983900E-01	4.23931			
2.984320E-01	4.23883			
2.985280E-01	4.2378			
2.985490E-01	4.2376			
2.985710E-01	4.23746			
2.986050E-01	4.23733			
2.987060E-01	4.23706			
2.987290E-01	4.23692			
2.987460E-01	4.23673			
2.987630E-01	4.23644			
2.987850E-01	4.23598			
2.988890E-01	4.23364			
2.989090E-01	4.23314			
2.989200E-01	4.2328			
2.989410E-01	4.23208			
2.989610E-01	4.23128			
2.990440E-01	4.22792			
2.990850E-01	4.22633			
2.992190E-01	4.22437			
2.992400E-01	4.22401			
2.992500E-01	4.22379			
2.992560E-01	4.22376			
2.992730E-01	4.22359			
2.992950E-01	4.22331			
2.993230E-01	4.22289			
2.993400E-01	4.22259			
2.993570E-01	4.22225			
2.993960E-01	4.22137			
2.994080E-01	4.22114			
2.994160E-01	4.22099			
2.994240E-01	4.22087			
2.994300E-01	4.22081			
2.994320E-01	4.22074			
2.994400E-01	4.22056			
2.994480E-01	4.2204			
2.994550E-01	4.22026			
2.994650E-01	4.2201			
2.994800E-01	4.21989			
2.995600E-01	4.21885			
2.995900E-01	4.21847			
2.996200E-01	4.21923			
2.997000E-01	4.22127			
2.997200E-01	4.22179			
2.997300E-01	4.22206			
2.997400E-01	4.22234			
2.997500E-01	4.22262			
2.997580E-01	4.22287			
2.997670E-01	4.22313			
2.997780E-01	4.22349			
2.997950E-01	4.22404			
3.000760E-01	4.23329			
3.001100E-01	4.23441			
3.001390E-01	4.2354			
3.018180E-01	4.29188			
3.026900E-01	4.32128			
3.038800E-01	4.26301			
3.085620E-01	4.03288			
3.145700E-01	3.96678			
3.316500E-01	3.77905			
3.345100E-01	3.76337			
3.485700E-01	3.68628			
3.496200E-01	3.65381			
3.526650E-01	3.56004			
3.526940E-01	3.55915			
3.527230E-01	3.55826			
3.532920E-01	3.54126			
3.533280E-01	3.54018			
3.533500E-01	3.53955			
3.533680E-01	3.53906			
3.533700E-01	3.53899			
3.533850E-01	3.54256			
3.535770E-01	3.58837			
3.536040E-01	3.59463			
3.536210E-01	3.59881			
3.536380E-01	3.60286			
3.536620E-01	3.60874			
3.537350E-01	3.62629			
3.537690E-01	3.65599			
3.538260E-01	3.75244			
3.538410E-01	3.78061			
3.538660E-01	3.82642			
3.538820E-01	3.85697			
3.538980E-01	3.88637			
3.539200E-01	3.92876			
3.540250E-01	4.12671			
3.540540E-01	4.18209			
3.540770E-01	4.2426			
3.540940E-01	4.31514			
3.541000E-01	4.35126			
3.541120E-01	4.42648			
3.541220E-01	4.512			
3.541240E-01	4.52206			
3.541460E-01	4.72766			
3.541470E-01	4.74527			
3.541710E-01	4.99524			
3.541770E-01	5.06254			
3.541950E-01	5.27936			
3.542430E-01	5.91706			
3.542600E-01	6.1247			
3.542780E-01	6.28713			
3.542950E-01	6.39214			
3.543100E-01	6.44831			
3.543170E-01	6.46148			
3.543300E-01	6.48342			
3.543400E-01	6.48793			
3.543600E-01	6.46688			
3.543700E-01	6.43635			
3.543800E-01	6.38354			
3.543870E-01	6.34723			
3.544000E-01	6.24718			
3.544120E-01	6.11789			
3.544210E-01	6.0155			
3.544380E-01	5.77569			
3.544800E-01	5.0927			
3.544920E-01	4.91248			
3.545050E-01	4.76104			
3.545180E-01	4.63949			
3.545300E-01	4.54455			
3.545300E-01	4.54214			
3.545560E-01	4.38596			
3.545900E-01	4.19795			
3.546060E-01	4.10905			
3.546120E-01	4.08017			
3.546280E-01	4.00937			
3.546320E-01	3.99202			
3.546480E-01	3.93658			
3.546510E-01	3.92893			
3.546710E-01	3.88435			
3.547650E-01	3.76165			
3.548390E-01	3.67311			
3.548700E-01	3.63557			
3.548740E-01	3.6303			
3.549010E-01	3.61308			
3.549040E-01	3.61107			
3.550050E-01	3.60448			
3.550630E-01	3.60392			
3.550730E-01	3.60392			
3.550970E-01	3.60389			
3.551120E-01	3.60383			
3.551280E-01	3.60373			
3.551510E-01	3.60351			
3.552140E-01	3.60275			
3.553310E-01	3.60132			
3.553470E-01	3.60115			
3.553620E-01	3.601			
3.553700E-01	3.60095			
3.553740E-01	3.60085			
3.553860E-01	3.60059			
3.554020E-01	3.60028			
3.554350E-01	3.59969			
3.555810E-01	3.59715			
3.555970E-01	3.59687			
3.556140E-01	3.59661			
3.556260E-01	3.59643			
3.556360E-01	3.59629			
3.556480E-01	3.59614			
3.556650E-01	3.59595			
3.557000E-01	3.59559			
3.563450E-01	3.58915			
3.563680E-01	3.58892			
3.563900E-01	3.58872			
3.564190E-01	3.58845			
3.576100E-01	3.57774			
3.576500E-01	3.57739			
3.597100E-01	3.55954			
3.607830E-01	3.56196			
3.626760E-01	3.56611			
3.700150E-01	3.5822			
3.701700E-01	3.58216			
3.754800E-01	3.39819			
3.757600E-01	3.40527			
3.845800E-01	3.62831			
3.925700E-01	3.5421			
3.963600E-01	3.50101			
3.963900E-01	3.50069			
3.964680E-01	3.49987			
3.975910E-01	3.48801			
3.976300E-01	3.4876			
3.976920E-01	3.48697			
3.985660E-01	3.47806			
3.985890E-01	3.47783			
3.986050E-01	3.47769			
3.986160E-01	3.4776			
3.986280E-01	3.47751			
3.986360E-01	3.47746			
3.986520E-01	3.47738			
3.986850E-01	3.47723			
3.988640E-01	3.47649			
3.989120E-01	3.47627			
3.991400E-01	3.47519			
3.993680E-01	3.47415			
3.994000E-01	3.47399			
3.995000E-01	3.47341			
3.995750E-01	3.47296			
3.996000E-01	3.47278			
3.996350E-01	3.47247			
3.998450E-01	3.47041			
3.998620E-01	3.47023			
3.998800E-01	3.47002			
3.999110E-01	3.46961			
4.000360E-01	3.4678			
4.000680E-01	3.46733			
4.000910E-01	3.46693			
4.001300E-01	3.46621			
4.003640E-01	3.46171			
4.004210E-01	3.46059			
4.005590E-01	3.45783			
4.005790E-01	3.45743			
4.005930E-01	3.45718			
4.006090E-01	3.4569			
4.006280E-01	3.4566			
4.006560E-01	3.45618			
4.008440E-01	3.45344			
4.008720E-01	3.45303			
4.008910E-01	3.45277			
4.009060E-01	3.45257			
4.009230E-01	3.45235			
4.009460E-01	3.45208			
4.016050E-01	3.44434			
4.016280E-01	3.44408			
4.016510E-01	3.44382			
4.016840E-01	3.44346			
4.016950E-01	3.44334			
4.043300E-01	3.41494			
4.073060E-01	3.38452			
4.082800E-01	3.37457			
4.289200E-01	3.24166			
4.623100E-01	3.02639			
4.936000E-01	2.94691			
5.072900E-01	2.89103			
5.190000E-01	2.84321			
5.192500E-01	2.84871			
5.266380E-01	3.01139			
5.266750E-01	3.0122			
5.266930E-01	3.0126			
5.267660E-01	3.01424			
5.285530E-01	3.05453			
5.285900E-01	3.05534			
5.286220E-01	3.05605			
5.290210E-01	3.06456			
5.292480E-01	3.06939			
5.292800E-01	3.07009			
5.292970E-01	3.07046			
5.293480E-01	3.0716			
5.296000E-01	3.0772			
5.296470E-01	3.08561			
5.303700E-01	3.37099			
5.310130E-01	3.62478			
5.310360E-01	3.64519			
5.310600E-01	3.6842			
5.310840E-01	3.74995			
5.311090E-01	3.83522			
5.311390E-01	3.95335			
5.311710E-01	4.0795			
5.311900E-01	4.1552			
5.312120E-01	4.24138			
5.312340E-01	4.32758			
5.314010E-01	4.98766			
5.314500E-01	5.19825			
5.315050E-01	5.48288			
5.316150E-01	6.09252			
5.316420E-01	6.26567			
5.316630E-01	6.42711			
5.316840E-01	6.62916			
5.317110E-01	6.95514			
5.318350E-01	8.60284			
5.318570E-01	8.90905			
5.318900E-01	9.36184			
5.319170E-01	9.73268			
5.319220E-01	9.81314			
5.319570E-01	10.3257			
5.319770E-01	10.6632			
5.319910E-01	10.9351			
5.320040E-01	11.2675			
5.320180E-01	11.6697			
5.320510E-01	12.8168			
5.320650E-01	13.2028			
5.320780E-01	13.4889			
5.320920E-01	13.6748			
5.321050E-01	13.7828			
5.321320E-01	13.8767			
5.322730E-01	14.0685			
5.322800E-01	14.0686			
5.323070E-01	14.0127			
5.323200E-01	13.9345			
5.323420E-01	13.7234			
5.323640E-01	13.4304			
5.324080E-01	12.7456			
5.324510E-01	12.0124			
5.325170E-01	10.8105			
5.325800E-01	9.62837			
5.326700E-01	7.94291			
5.327020E-01	7.37253			
5.327230E-01	7.01948			
5.327390E-01	6.78381			
5.327550E-01	6.58263			
5.327710E-01	6.41736			
5.327870E-01	6.28132			
5.328190E-01	6.05536			
5.328400E-01	5.91759			
5.329680E-01	5.09097			
5.329990E-01	4.90681			
5.330220E-01	4.79925			
5.330590E-01	4.66695			
5.330590E-01	4.66508			
5.331000E-01	4.54342			
5.331470E-01	4.40299			
5.333630E-01	3.75409			
5.334000E-01	3.66766			
5.334310E-01	3.62193			
5.335220E-01	3.54296			
5.336310E-01	3.45631			
5.336620E-01	3.43153			
5.337090E-01	3.39433			
5.340300E-01	3.13998			
5.340690E-01	3.12465			
5.340840E-01	3.1187			
5.341000E-01	3.11721			
5.341290E-01	3.11451			
5.342760E-01	3.10104			
5.345260E-01	3.07816			
5.345480E-01	3.07615			
5.345700E-01	3.07415			
5.345920E-01	3.07217			
5.346140E-01	3.07021			
5.347450E-01	3.05846			
5.362200E-01	2.92668			
5.364110E-01	2.93171			
5.364620E-01	2.93308			
5.402500E-01	3.03418			
5.420390E-01	3.0816			
5.449830E-01	3.15964			
5.450200E-01	3.16063			
5.451010E-01	3.16279			
5.491040E-01	3.26989			
5.492230E-01	3.27906			
5.501850E-01	3.43698			
5.520200E-01	3.73781			
5.553500E-01	4.45986			
5.557500E-01	4.54668			
5.571700E-01	5.08331			
5.574400E-01	5.18534			
5.593000E-01	6.21912			
5.604700E-01	7.16059			
5.626020E-01	9.8129			
5.626500E-01	9.87334			
5.628720E-01	10.149			
5.633300E-01	10.7187			
5.638800E-01	11.2153			
5.639200E-01	11.2517			
5.639390E-01	11.2691			
5.640360E-01	11.3564			
5.642400E-01	11.5411			
5.651500E-01	11.8282			
5.659300E-01	11.8997			
5.663510E-01	11.7328			
5.663900E-01	11.7175			
5.664870E-01	11.6789			
5.666120E-01	11.6293			
5.674900E-01	11.0026			
5.692700E-01	9.40771			
5.710900E-01	7.66626			
5.726490E-01	6.68024			
5.726980E-01	6.64945			
5.730150E-01	6.44932			
5.732600E-01	6.29427			
5.761200E-01	5.18488			
5.785900E-01	4.56386			
5.788600E-01	4.50523			
5.810100E-01	4.03844			
5.833100E-01	3.68288			
5.834140E-01	3.68094			
5.837120E-01	3.68118			
5.837500E-01	3.68121			
5.837850E-01	3.68125			
5.848900E-01	3.68251			
5.849410E-01	3.68257			
5.849670E-01	3.68261			
5.849700E-01	3.68261			
5.849930E-01	3.68263			
5.850280E-01	3.68267			
5.857310E-01	3.68356			
5.858130E-01	3.68983			
5.858400E-01	3.70545			
5.858770E-01	3.74894			
5.859080E-01	3.80088			
5.859340E-01	3.84383			
5.859600E-01	3.88679			
5.859840E-01	3.92725			
5.860240E-01	3.99367			
5.860250E-01	3.99494			
5.860610E-01	4.0687			
5.860890E-01	4.15349			
5.861170E-01	4.27561			
5.861350E-01	4.37361			
5.863750E-01	5.78588			
5.864120E-01	6.02244			
5.864440E-01	6.27251			
5.865230E-01	6.97175			
5.865450E-01	7.12783			
5.865670E-01	7.24507			
5.865880E-01	7.32664			
5.866170E-01	7.39747			
5.866460E-01	7.42511			
5.866680E-01	7.40051			
5.866940E-01	7.32195			
5.867270E-01	7.16471			
5.867610E-01	6.96857			
5.867870E-01	6.78175			
5.868120E-01	6.55501			
5.869050E-01	5.61326			
5.869300E-01	5.38479			
5.869510E-01	5.22067			
5.869590E-01	5.16275			
5.869840E-01	4.99412			
5.869870E-01	4.96882			
5.870150E-01	4.79448			
5.870600E-01	4.50916			
5.870740E-01	4.42197			
5.871100E-01	4.2076			
5.871310E-01	4.09871			
5.871530E-01	4.01419			
5.871740E-01	3.95314			
5.872180E-01	3.86755			
5.873610E-01	3.62179			
5.873900E-01	3.5829			
5.874350E-01	3.54328			
5.874380E-01	3.54053			
5.874690E-01	3.52216			
5.874990E-01	3.50405			
5.875560E-01	3.46993			
5.878580E-01	3.28789			
5.878960E-01	3.26512			
5.879240E-01	3.248			
5.879680E-01	3.22188			
5.879720E-01	3.2193			
5.881600E-01	3.09946			
5.882590E-01	2.99746			
5.886330E-01	2.58754			
5.886620E-01	2.55646			
5.886810E-01	2.53576			
5.886900E-01	2.52542			
5.887000E-01	2.51323			
5.887190E-01	2.48886			
5.887470E-01	2.45234			
5.889830E-01	2.15187			
5.890160E-01	2.10359			
5.890390E-01	2.06278			
5.890590E-01	2.01491			
5.890870E-01	1.93367			
5.891530E-01	1.72114			
5.891720E-01	1.66926			
5.891910E-01	1.62868			
5.892090E-01	1.60119			
5.892280E-01	1.58479			
5.892560E-01	1.57188			
5.892940E-01	1.5624			
5.893120E-01	1.5612			
5.893310E-01	1.56591			
5.893500E-01	1.58006			
5.893670E-01	1.60226			
5.893840E-01	1.63252			
5.894090E-01	1.68867			
5.894340E-01	1.75551			
5.894510E-01	1.80809			
5.894680E-01	1.869			
5.894850E-01	1.93821			
5.895190E-01	2.09348			
5.895610E-01	2.30061			
5.895860E-01	2.43619			
5.896030E-01	2.54019			
5.896200E-01	2.66154			
5.896370E-01	2.80259			
5.896540E-01	2.96099			
5.896880E-01	3.30771			
5.897550E-01	4.01872			
5.897780E-01	4.23634			
5.897940E-01	4.38006			
5.898090E-01	4.48975			
5.898280E-01	4.60377			
5.898560E-01	4.74214			
5.899100E-01	4.97042			
5.899120E-01	4.98103			
5.899500E-01	5.11577			
5.899780E-01	5.1856			
5.900250E-01	5.25182			
5.900810E-01	5.29839			
5.901000E-01	5.30179			
5.901350E-01	5.28494			
5.905860E-01	4.77118			
5.909320E-01	4.46123			
5.912100E-01	4.22308			
5.914940E-01	4.08049			
5.916000E-01	4.02752			
5.916720E-01	3.99165			
5.918250E-01	3.91475			
5.920300E-01	3.81865			
5.935800E-01	3.64087			
5.938540E-01	3.62137			
5.938900E-01	3.61883			
5.939260E-01	3.61628			
5.974500E-01	3.36663			
5.984180E-01	3.3586			
5.984540E-01	3.3583			
5.984720E-01	3.35815			
5.984900E-01	3.35801			
5.985120E-01	3.35784			
5.985330E-01	3.35768			
5.986200E-01	3.35704			
6.005890E-01	3.34251			
6.006220E-01	3.34228			
6.006430E-01	3.34214			
6.006590E-01	3.34205			
6.006760E-01	3.34197			
6.006800E-01	3.34195			
6.006970E-01	3.34828			
6.007410E-01	3.36411			
6.011350E-01	3.50841			
6.011920E-01	3.53842			
6.011950E-01	3.5411			
6.012280E-01	3.56822			
6.012490E-01	3.58633			
6.012670E-01	3.60116			
6.012870E-01	3.61849			
6.013150E-01	3.64162			
6.015470E-01	3.83728			
6.015900E-01	3.88879			
6.016410E-01	3.98235			
6.016720E-01	4.05402			
6.017000E-01	4.11514			
6.017000E-01	4.11609			
6.017250E-01	4.19185			
6.017420E-01	4.26242			
6.017590E-01	4.35419			
6.017700E-01	4.42932			
6.017760E-01	4.46687			
6.018350E-01	4.92436			
6.018520E-01	5.03565			
6.018740E-01	5.14874			
6.018880E-01	5.19995			
6.019150E-01	5.26864			
6.019360E-01	5.29316			
6.019420E-01	5.29457			
6.019560E-01	5.2837			
6.019700E-01	5.25109			
6.019840E-01	5.19504			
6.020040E-01	5.0723			
6.020390E-01	4.81169			
6.020660E-01	4.6044			
6.020870E-01	4.47336			
6.021080E-01	4.37185			
6.021280E-01	4.29646			
6.021620E-01	4.20154			
6.022250E-01	4.05018			
6.022600E-01	3.96534			
6.023050E-01	3.85613			
6.023690E-01	3.70129			
6.023960E-01	3.64655			
6.024220E-01	3.61123			
6.024570E-01	3.58614			
6.026950E-01	3.51702			
6.027250E-01	3.50827			
6.027560E-01	3.49906			
6.028050E-01	3.48453			
6.032270E-01	3.35808			
6.032760E-01	3.3434			
6.033570E-01	3.31874			
6.035270E-01	3.26708			
6.037800E-01	3.19345			
6.039000E-01	3.15857			
6.040150E-01	3.1555			
6.042060E-01	3.15042			
6.042350E-01	3.14966			
6.042650E-01	3.14892			
6.042950E-01	3.1482			
6.046550E-01	3.13986			
6.046850E-01	3.13917			
6.047000E-01	3.13883			
6.047150E-01	3.13851			
6.047300E-01	3.13819			
6.047440E-01	3.1379			
6.047590E-01	3.13762			
6.047780E-01	3.13727			
6.048060E-01	3.13675			
6.052830E-01	3.12815			
6.053110E-01	3.12764			
6.053310E-01	3.1273			
6.053470E-01	3.12701			
6.053690E-01	3.12663			
6.053990E-01	3.12614			
6.109400E-01	3.03369			
6.128800E-01	3.009			
6.241400E-01	2.86575			
6.300300E-01	2.79095			
6.399200E-01	2.71366			
6.456750E-01	3.0043			
6.514300E-01	3.04183			
6.664600E-01	2.66995			
6.741900E-01	2.68875			
6.839300E-01	2.7123			
6.913800E-01	2.41911			
6.988300E-01	2.62574			
7.241600E-01	2.49615			
7.341600E-01	2.41682			
7.363000E-01	2.39987			
7.400800E-01	2.45341			
7.463800E-01	2.60322			
7.484550E-01	2.5995			
7.492850E-01	2.58667			
7.530200E-01	2.50797			
7.582100E-01	2.4447			
7.610200E-01	2.41045			
7.620550E-01	2.41569			
7.630900E-01	2.43362			
7.642520E-01	2.45812			
7.642880E-01	2.45888			
7.643250E-01	2.45967			
7.643760E-01	2.46076			
7.650590E-01	2.47547			
7.650970E-01	2.47629			
7.651200E-01	2.47676			
7.651480E-01	2.47736			
7.652240E-01	2.47894			
7.662730E-01	2.50073			
7.663110E-01	2.50153			
7.663300E-01	2.50193			
7.663620E-01	2.50262			
7.664170E-01	2.50377			
7.690570E-01	2.56002			
7.691000E-01	2.56094			
7.692060E-01	2.56318			
7.693000E-01	2.56516			
7.701590E-01	2.59196			
7.701950E-01	2.59306			
7.702210E-01	2.5939			
7.702470E-01	2.59472			
7.702630E-01	2.59526			
7.702960E-01	2.59634			
7.713510E-01	2.63109			
7.717190E-01	2.64317			
7.717650E-01	2.64466			
7.717940E-01	2.64558			
7.718350E-01	2.64683			
7.719400E-01	2.65003			
7.731430E-01	2.61472			
7.734160E-01	2.60677			
7.749200E-01	2.56289			
7.752160E-01	2.56678			
7.752560E-01	2.56733			
7.752910E-01	2.5678			
7.753340E-01	2.56839			
7.753980E-01	2.56928			
7.775400E-01	2.59909			
7.881400E-01	3.02605			
7.909600E-01	3.22124			
7.937800E-01	3.54935			
7.951370E-01	3.79887			
7.951800E-01	3.80673			
7.952650E-01	3.82245			
7.966000E-01	4.06807			
7.984760E-01	4.55213			
7.989200E-01	4.66657			
7.991600E-01	4.72843			
8.000150E-01	4.98169			
8.010420E-01	5.28576			
8.010760E-01	5.2959			
8.011100E-01	5.30605			
8.011400E-01	5.3151			
8.012010E-01	5.33322			
8.029380E-01	5.84988			
8.030600E-01	5.88614			
8.032220E-01	5.93456			
8.043190E-01	6.2614			
8.043600E-01	6.27349			
8.045250E-01	6.32252			
8.046490E-01	6.35927			
8.046900E-01	6.3715			
8.047530E-01	6.39026			
8.052610E-01	6.54012			
8.053400E-01	6.56351			
8.053880E-01	6.57751			
8.056400E-01	6.65157			
8.066720E-01	6.91113			
8.067040E-01	6.91912			
8.067360E-01	6.92726			
8.067690E-01	6.93556			
8.073760E-01	7.08931			
8.077370E-01	7.18073			
8.077870E-01	7.19328			
8.078700E-01	7.21445			
8.082800E-01	7.31854			
8.109200E-01	7.83302			
8.135600E-01	8.14277			
8.162000E-01	8.19566			
8.163100E-01	8.1882			
8.177380E-01	8.09124			
8.211200E-01	7.61908			
8.245100E-01	7.04384			
8.301000E-01	6.09572			
8.339000E-01	5.36747			
8.358000E-01	5.04496			
8.377000E-01	4.81383			
8.396000E-01	4.72135			
8.417550E-01	4.80486			
8.418060E-01	4.80683			
8.418400E-01	4.80815			
8.418740E-01	4.80949			
8.419770E-01	4.81355			
8.431400E-01	4.85934			
8.443200E-01	4.87233			
8.447240E-01	4.8425			
8.447850E-01	4.83798			
8.448000E-01	4.83684			
8.451360E-01	4.81184			
8.459910E-01	4.74805			
8.462320E-01	4.70843			
8.467200E-01	4.62857			
8.471590E-01	4.55655			
8.501750E-01	4.06141			
8.502160E-01	4.05466			
8.502510E-01	4.04895			
8.502600E-01	4.0475			
8.502930E-01	4.04416			
8.503150E-01	4.04205			
8.523200E-01	3.84146			
8.551600E-01	3.72875			
8.604400E-01	3.65711			
8.692710E-01	3.38833			
8.693020E-01	3.38737			
8.693340E-01	3.38642			
8.693550E-01	3.38579			
8.693760E-01	3.38516			
8.694190E-01	3.38393			
8.702000E-01	3.36113			
8.718280E-01	3.33188			
8.718700E-01	3.3311			
8.719180E-01	3.33019			
8.719340E-01	3.32988			
8.739520E-01	3.29083			
8.740000E-01	3.28989			
8.740480E-01	3.28892			
8.741440E-01	3.28691			
8.758900E-01	3.25037			
8.759220E-01	3.2497			
8.759460E-01	3.24921			
8.759620E-01	3.24888			
8.759780E-01	3.24855			
8.759950E-01	3.24822			
8.760200E-01	3.24773			
8.760710E-01	3.24676			
8.797240E-01	3.17628			
8.802600E-01	3.16594			
8.850000E-01	3.07478			
8.952800E-01	2.73023			
8.988880E-01	2.67592			
8.990000E-01	2.67424			
9.039780E-01	2.68288			
9.049000E-01	2.76594			
9.053600E-01	2.86376			
9.054000E-01	2.87234			
9.054380E-01	2.88052			
9.054930E-01	2.89221			
9.057400E-01	2.94485			
9.065800E-01	3.22627			
9.074200E-01	3.60549			
9.077230E-01	3.7761			
9.077600E-01	3.79666			
9.078630E-01	3.8548			
9.082600E-01	4.07767			
9.091000E-01	4.63703			
9.103000E-01	5.51201			
9.109000E-01	5.88633			
9.110180E-01	5.93851			
9.110700E-01	5.96133			
9.111520E-01	5.99763			
9.115000E-01	6.15089			
9.121000E-01	6.25619			
9.126000E-01	6.19776			
9.131000E-01	6.03012			
9.146000E-01	5.2566			
9.156800E-01	4.80654			
9.162990E-01	4.63973			
9.163650E-01	4.62183			
9.164160E-01	4.60823			
9.167600E-01	4.51551			
9.178400E-01	4.34573			
9.189200E-01	4.25808			
9.224800E-01	4.14162			
9.262000E-01	4.08846			
9.314370E-01	4.14778			
9.442300E-01	4.59057			
9.448200E-01	4.61101			
9.486750E-01	4.77768			
9.487440E-01	4.78065			
9.529330E-01	4.9627			
9.530000E-01	4.9656			
9.530670E-01	4.96848			
9.556810E-01	5.08037			
9.557320E-01	5.08253			
9.557820E-01	5.08469			
9.580200E-01	5.18135			
9.646800E-01	5.34778			
9.700930E-01	5.36066			
9.701000E-01	5.36068			
9.701600E-01	5.35942			
9.702260E-01	5.35804			
9.740510E-01	5.27879			
9.744050E-01	5.2714			
9.757760E-01	5.24277			
9.758200E-01	5.24185			
9.759300E-01	5.23952			
9.773560E-01	5.20922			
9.775020E-01	5.2061			
9.786540E-01	5.18147			
9.803650E-01	5.13648			
9.804450E-01	5.13374			
9.805000E-01	5.13188			
9.805500E-01	5.13018			
9.847900E-01	4.98727			
9.982400E-01	4.53463			
9.993000E-01	4.49892			
1.000500E+00	4.38648			
1.001000E+00	4.34416			
1.008200E+00	4.20027			
1.013030E+00	4.06922			
1.013070E+00	4.06805			
1.013110E+00	4.06693			
1.013150E+00	4.06592			
1.013300E+00	4.06192			
1.017950E+00	3.93783			
1.018050E+00	3.93515			
1.019450E+00	3.89753			
1.019470E+00	3.89686			
1.019520E+00	3.89562			
1.019620E+00	3.89282			
1.020350E+00	3.87257			
1.020410E+00	3.87086			
1.020480E+00	3.86915			
1.022020E+00	3.82544			
1.022060E+00	3.8243			
1.022080E+00	3.82373			
1.022100E+00	3.82316			
1.022120E+00	3.82257			
1.022140E+00	3.82198			
1.022190E+00	3.82081			
1.022230E+00	3.81965			
1.029600E+00	3.61969			
1.032000E+00	3.61432			
1.038250E+00	3.72881			
1.038500E+00	3.73909			
1.039030E+00	3.77939			
1.039070E+00	3.78266			
1.039120E+00	3.78593			
1.039180E+00	3.79086			
1.040000E+00	3.8535			
1.042400E+00	4.21721			
1.043200E+00	4.295			
1.044000E+00	4.30271			
1.044040E+00	4.29851			
1.044090E+00	4.29215			
1.044140E+00	4.286			
1.044350E+00	4.26159			
1.045130E+00	4.16886			
1.045500E+00	4.09621			
1.047000E+00	3.77855			
1.047240E+00	3.73644			
1.047280E+00	3.72917			
1.047320E+00	3.72192			
1.047360E+00	3.71466			
1.048400E+00	3.53102			
1.049800E+00	3.36054			
1.051200E+00	3.25616			
1.052600E+00	3.20718			
1.053940E+00	3.20252			
1.054000E+00	3.20232			
1.054600E+00	3.21173			
1.057200E+00	3.2526			
1.058600E+00	3.22811			
1.061600E+00	3.10911			
1.065400E+00	3.08304			
1.074800E+00	2.96085			
1.082630E+00	2.91313			
1.082680E+00	2.91285			
1.082710E+00	2.91267			
1.082740E+00	2.9125			
1.082780E+00	2.91224			
1.085840E+00	2.89522			
1.085880E+00	2.89496			
1.085910E+00	2.89481			
1.085970E+00	2.89444			
1.090250E+00	2.86669			
1.090300E+00	2.86636			
1.090350E+00	2.86608			
1.090420E+00	2.86562			
1.104200E+00	2.78152			
1.116800E+00	2.75154			
1.123600E+00	2.69048			
1.131400E+00	2.54109			
1.141740E+00	2.23718			
1.141800E+00	2.2354			
1.141880E+00	2.23366			
1.144400E+00	2.17627			
1.146700E+00	2.14973			
1.150000E+00	2.1119			
1.151030E+00	2.07309			
1.151070E+00	2.07179			
1.151100E+00	2.07047			
1.151150E+00	2.0686			
1.151290E+00	2.06293			
1.152000E+00	2.03533			
1.152800E+00	1.97614			
1.152860E+00	1.97164			
1.152890E+00	1.96894			
1.152920E+00	1.96716			
1.152940E+00	1.96537			
1.152990E+00	1.96182			
1.153400E+00	1.93169			
1.156200E+00	1.68709			
1.157230E+00	1.62553			
1.157280E+00	1.62262			
1.157330E+00	1.61968			
1.157400E+00	1.61521			
1.157600E+00	1.6033			
1.159000E+00	1.58298			
1.160000E+00	1.6201			
1.161000E+00	1.69811			
1.162000E+00	1.81072			
1.163000E+00	1.95162			
1.163650E+00	2.06011			
1.163700E+00	2.06845			
1.163770E+00	2.08035			
1.165800E+00	2.41768			
1.167000E+00	2.55952			
1.168200E+00	2.60492			
1.169440E+00	2.56639			
1.169750E+00	2.53979			
1.169800E+00	2.53576			
1.169880E+00	2.52918			
1.172400E+00	2.31674			
1.173000E+00	2.26457			
1.174200E+00	2.18868			
1.176600E+00	2.11261			
1.179800E+00	2.07681			
1.188000E+00	1.98525			
1.191000E+00	2.03561			
1.194000E+00	2.23033			
1.197000E+00	2.63815			
1.200000E+00	3.32724			
1.203000E+00	4.21617			
1.204000E+00	4.44782			
1.205000E+00	4.59584			
1.206200E+00	4.63676			
1.207400E+00	4.55519			
1.208600E+00	4.39159			
1.212000E+00	3.84107			
1.215000E+00	3.53353			
1.219600E+00	3.20784			
1.225000E+00	2.91721			
1.232800E+00	2.58145			
1.235400E+00	2.43807			
1.238000E+00	2.25359			
1.242800E+00	1.8196			
1.245200E+00	1.62243			
1.247600E+00	1.48732			
1.250000E+00	1.45091			
1.251800E+00	1.50751			
1.253600E+00	1.63909			
1.255400E+00	1.84397			
1.257200E+00	2.12105			
1.259000E+00	2.46858			
1.261800E+00	3.09462			
1.263200E+00	3.37336			
1.264600E+00	3.57743			
1.266000E+00	3.66844			
1.267030E+00	3.64654			
1.269000E+00	3.46441			
1.271000E+00	3.23375			
1.272600E+00	3.11491			
1.274200E+00	3.05947			
1.275800E+00	3.04823			
1.281200E+00	3.09252			
1.285600E+00	3.06028			
1.301200E+00	2.84678			
1.312400E+00	2.76514			
1.318700E+00	2.75831			
1.326000E+00	2.75088			
1.344400E+00	2.74592			
1.373200E+00	2.55928			
1.383600E+00	2.53555			
1.390000E+00	2.42279			
1.392800E+00	2.37346			
1.395400E+00	2.39257			
1.398000E+00	2.49465			
1.399400E+00	2.59411			
1.400800E+00	2.72965			
1.402200E+00	2.90409			
1.403600E+00	3.12073			
1.405000E+00	3.38235			
1.408000E+00	3.99816			
1.409000E+00	4.14344			
1.410000E+00	4.21913			
1.411200E+00	4.19884			
1.412400E+00	4.08057			
1.416000E+00	3.49582			
1.418000E+00	3.24971			
1.420000E+00	3.09825			
1.422000E+00	3.01289			
1.428400E+00	2.85651			
1.432000E+00	2.74422			
1.436800E+00	2.64797			
1.441600E+00	2.61038			
1.456000E+00	2.59389			
1.461200E+00	2.55626			
1.463800E+00	2.56175			
1.466400E+00	2.60675			
1.469800E+00	2.75435			
1.471400E+00	2.87855			
1.473000E+00	3.06488			
1.475800E+00	3.51471			
1.477200E+00	3.70303			
1.478600E+00	3.79594			
1.479980E+00	3.7423			
1.481200E+00	3.55554			
1.483000E+00	3.1849			
1.484400E+00	2.95427			
1.485800E+00	2.79383			
1.487200E+00	2.68837			
1.490000E+00	2.57839			
1.493200E+00	2.51179			
1.499600E+00	2.46024			
1.500000E+00	2.46065			
1.510600E+00	2.47096			
1.513600E+00	2.51233			
1.515600E+00	2.5422			
1.519000E+00	2.66664			
1.521000E+00	2.79103			
1.523000E+00	2.9815			
1.526600E+00	3.41396			
1.527800E+00	3.48616			
1.528920E+00	3.47563			
1.529300E+00	3.44996			
1.529800E+00	3.40704			
1.531400E+00	3.18004			
1.533000E+00	2.9256			
1.534200E+00	2.77719			
1.535400E+00	2.67045			
1.537800E+00	2.5448			
1.542400E+00	2.43071			
1.549200E+00	2.36286			
1.568780E+00	2.39843			
1.572400E+00	2.44814			
1.574200E+00	2.51007			
1.576000E+00	2.60942			
1.579600E+00	2.88547			
1.580800E+00	2.95747			
1.582000E+00	2.99702			
1.586000E+00	2.9547			
1.587000E+00	2.96585			
1.588200E+00	3.0243			
1.589400E+00	3.14054			
1.590600E+00	3.32107			
1.591800E+00	3.57251			
1.593000E+00	3.90108			
1.595400E+00	4.69375			
1.596200E+00	4.91571			
1.597000E+00	5.07432			
1.598200E+00	5.16309			
1.599400E+00	5.1047			
1.600600E+00	4.94835			
1.603000E+00	4.54295			
1.604600E+00	4.34095			
1.606200E+00	4.21387			
1.609400E+00	4.10795			
1.615800E+00	4.08144			
1.618200E+00	4.13907			
1.620600E+00	4.27412			
1.623800E+00	4.61766			
1.628400E+00	5.27751			
1.631200E+00	5.54694			
1.634000E+00	5.64243			
1.636800E+00	5.53091			
1.639600E+00	5.23013			
1.643000E+00	4.69426			
1.644000E+00	4.58131			
1.645000E+00	4.542			
1.646010E+00	4.60795			
1.646800E+00	4.74722			
1.648400E+00	5.20116			
1.651200E+00	6.10665			
1.653000E+00	6.47725			
1.655000E+00	6.54227			
1.657000E+00	6.30429			
1.659000E+00	5.87103			
1.663000E+00	4.85239			
1.665200E+00	4.42718			
1.667400E+00	4.12346			
1.669600E+00	3.90531			
1.679200E+00	3.20433			
1.682800E+00	3.01171			
1.690400E+00	2.68958			
1.696800E+00	2.47233			
1.700000E+00	2.38299			
1.706800E+00	2.23572			
1.713210E+00	2.14045			
1.713600E+00	2.13469			
1.720400E+00	2.06575			
1.737380E+00	1.93823			
1.753200E+00	1.81944			
1.774000E+00	1.74994			
1.780800E+00	1.70821			
1.784200E+00	1.70184			
1.787600E+00	1.72047			
1.791000E+00	1.77529			
1.800000E+00	2.04058			
1.803070E+00	2.09553			
1.803150E+00	2.09556			
1.805940E+00	2.09497			
1.812400E+00	1.95723			
1.814000E+00	1.94952			
1.816400E+00	1.99492			
1.818800E+00	2.10398			
1.821200E+00	2.26802			
1.823600E+00	2.47695			
1.827400E+00	2.87705			
1.831600E+00	3.40234			
1.835800E+00	4.03205			
1.838600E+00	4.5507			
1.842000E+00	5.34311			
1.842900E+00	5.5754			
1.843400E+00	5.71087			
1.843900E+00	5.84335			
1.848000E+00	6.91953			
1.850800E+00	7.52716			
1.853200E+00	7.8357			
1.853900E+00	7.86068			
1.855600E+00	7.77379			
1.857200E+00	7.53708			
1.857700E+00	7.4276			
1.862000E+00	6.46082			
1.862900E+00	6.29143			
1.864600E+00	5.97236			
1.867300E+00	5.59292			
1.869800E+00	5.31843			
1.877400E+00	4.57377			
1.887000E+00	3.42522			
1.890000E+00	3.09237			
1.893000E+00	2.80462			
1.896000E+00	2.57986			
1.897600E+00	2.50201			
1.899000E+00	2.43562			
1.902000E+00	2.38978			
1.902800E+00	2.40122			
1.903200E+00	2.41068			
1.904400E+00	2.43292			
1.906800E+00	2.54348			
1.909200E+00	2.71423			
1.911600E+00	2.93819			
1.914000E+00	3.20831			
1.919200E+00	3.86958			
1.921000E+00	4.06892			
1.921800E+00	4.15577			
1.924400E+00	4.35182			
1.927000E+00	4.41263			
1.929250E+00	4.33495			
1.936000E+00	3.91085			
1.939000E+00	3.79171			
1.942000E+00	3.71984			
1.943600E+00	3.71033			
1.948000E+00	3.68634			
1.951400E+00	3.71707			
1.954800E+00	3.78624			
1.958200E+00	3.9018			
1.961600E+00	4.07105			
1.969800E+00	4.65492			
1.971400E+00	4.71406			
1.971800E+00	4.71451			
1.972200E+00	4.71411			
1.972900E+00	4.71308			
1.974800E+00	4.62131			
1.976600E+00	4.4556			
1.982000E+00	3.77547			
1.985200E+00	3.433			
1.988400E+00	3.17323			
1.991600E+00	2.97857			
1.994800E+00	2.83114			
1.997300E+00	2.74244			
2.000000E+00	2.64733			
2.010000E+00	2.44011			
2.014000E+00	2.37985			
2.024800E+00	2.15137			
2.032800E+00	2.00474			
2.039200E+00	1.88784			
2.044000E+00	1.84832			
2.046400E+00	1.85898			
2.048800E+00	1.8911			
2.049300E+00	1.90287			
2.053600E+00	2.01068			
2.058000E+00	2.16303			
2.060800E+00	2.25939			
2.062400E+00	2.28309			
2.064000E+00	2.27629			
2.065600E+00	2.23169			
2.070100E+00	2.03149			
2.070250E+00	2.02659			
2.070400E+00	2.02039			
2.072000E+00	1.9778			
2.073600E+00	1.98337			
2.074600E+00	1.98929			
2.077200E+00	2.09781			
2.079800E+00	2.29262			
2.082400E+00	2.56253			
2.085000E+00	2.89644			
2.086600E+00	3.12835			
2.089000E+00	3.47544			
2.091000E+00	3.73601			
2.093000E+00	3.93678			
2.094400E+00	4.01683			
2.095000E+00	4.04776			
2.096800E+00	4.05499			
2.098700E+00	3.97597			
2.100800E+00	3.89044			
2.102340E+00	3.82761			
2.104000E+00	3.78797			
2.105600E+00	3.81082			
2.106400E+00	3.82472			
2.113600E+00	4.17985			
2.115200E+00	4.19937			
2.116000E+00	4.20691			
2.117800E+00	4.14961			
2.121200E+00	3.90216			
2.121300E+00	3.89236			
2.127600E+00	3.3126			
2.132800E+00	2.95215			
2.134200E+00	2.88366			
2.138000E+00	2.70147			
2.142400E+00	2.56204			
2.146800E+00	2.48014			
2.151200E+00	2.44775			
2.155700E+00	2.45775			
2.162800E+00	2.5406			
2.163200E+00	2.5474			
2.170560E+00	2.714			
2.173600E+00	2.78278			
2.174950E+00	2.78766			
2.177200E+00	2.75604			
2.179300E+00	2.6862			
2.186000E+00	2.46153			
2.193200E+00	2.35739			
2.194900E+00	2.29029			
2.197000E+00	2.20788			
2.198000E+00	2.20245			
2.200000E+00	2.26214			
2.202000E+00	2.34745			
2.204200E+00	2.39615			
2.210800E+00	2.38774			
2.212200E+00	2.40606			
2.213070E+00	2.42094			
2.213220E+00	2.42657			
2.215400E+00	2.51			
2.216600E+00	2.57753			
2.220380E+00	2.78413			
2.222600E+00	2.90557			
2.224400E+00	2.9613			
2.225000E+00	2.97729			
2.226800E+00	2.98327			
2.229600E+00	2.9138			
2.230400E+00	2.8915			
2.234000E+00	2.71482			
2.235600E+00	2.62592			
2.240000E+00	2.38559			
2.243400E+00	2.19989			
2.246000E+00	2.08828			
2.248200E+00	2.01796			
2.249500E+00	1.99378			
2.252600E+00	1.93866			
2.257000E+00	1.93137			
2.259000E+00	1.95374			
2.260800E+00	1.97579			
2.264600E+00	2.0667			
2.268600E+00	2.21416			
2.272200E+00	2.3919			
2.275500E+00	2.59844			
2.276000E+00	2.62828			
2.280000E+00	2.91427			
2.283300E+00	3.1502			
2.284400E+00	3.22779			
2.287200E+00	3.37756			
2.290000E+00	3.46424			
2.292800E+00	3.46524			
2.293400E+00	3.46519			
2.296800E+00	3.37291			
2.300200E+00	3.22016			
2.305000E+00	2.96846			
2.307000E+00	2.86433			
2.312000E+00	2.66341			
2.315300E+00	2.57338			
2.317000E+00	2.52707			
2.322000E+00	2.43844			
2.331400E+00	2.35004			
2.339000E+00	2.27915			
2.345000E+00	2.25262			
2.348530E+00	2.27588			
2.349240E+00	2.28368			
2.356300E+00	2.42232			
2.362600E+00	2.54729			
2.366000E+00	2.67997			
2.370000E+00	2.87044			
2.370400E+00	2.88402			
2.372000E+00	2.93255			
2.374000E+00	2.94509			
2.375450E+00	2.91383			
2.376900E+00	2.84657			
2.378800E+00	2.7514			
2.382000E+00	2.55438			
2.387200E+00	2.31875			
2.387800E+00	2.30308			
2.392400E+00	2.19257			
2.397600E+00	2.14175			
2.402900E+00	2.13449			
2.408000E+00	2.12788			
2.418400E+00	2.06077			
2.425700E+00	1.99497			
2.434000E+00	1.92113			
2.437200E+00	1.91127			
2.440400E+00	1.93581			
2.441900E+00	1.97601			
2.443600E+00	2.02127			
2.446800E+00	2.1938			
2.450000E+00	2.47985			
2.454800E+00	3.06729			
2.456400E+00	3.23335			
2.458000E+00	3.3489			
2.459300E+00	3.39179			
2.459600E+00	3.39923			
2.461200E+00	3.3946			
2.462500E+00	3.34888			
2.467810E+00	3.16559			
2.471000E+00	3.10248			
2.473800E+00	3.09364			
2.476600E+00	3.12683			
2.476950E+00	3.13424			
2.478500E+00	3.17938			
2.482200E+00	3.28734			
2.485300E+00	3.43851			
2.488200E+00	3.58384			
2.491400E+00	3.81378			
2.493900E+00	4.04867			
2.497000E+00	4.33791			
2.498000E+00	4.39556			
2.500000E+00	4.40424			
2.500800E+00	4.40766			
2.503660E+00	4.24013			
2.506900E+00	3.91069			
2.512000E+00	3.39211			
2.512100E+00	3.38525			
2.513470E+00	3.29158			
2.514800E+00	3.19999			
2.517600E+00	3.08593			
2.520400E+00	3.03089			
2.528600E+00	3.0231			
2.551400E+00	3.00389			
2.565400E+00	2.9921			
2.578400E+00	2.9805			
2.587400E+00	2.973			
2.599000E+00	2.9293			
2.605800E+00	2.90289			
2.617000E+00	2.79876			
2.622900E+00	2.71942			
2.627800E+00	2.65416			
2.633400E+00	2.6017			
2.638620E+00	2.58871			
2.641000E+00	2.60781			
2.644000E+00	2.63332			
2.656000E+00	2.87051			
2.659000E+00	2.89764			
2.660700E+00	2.89627			
2.661250E+00	2.89244			
2.662000E+00	2.89017			
2.668000E+00	2.78181			
2.671000E+00	2.69039			
2.672800E+00	2.62663			
2.678800E+00	2.41324			
2.679600E+00	2.40419			
2.681200E+00	2.38942			
2.683900E+00	2.42262			
2.692000E+00	2.59659			
2.698000E+00	2.66665			
2.699300E+00	2.66141			
2.703600E+00	2.64075			
2.712790E+00	2.47694			
2.713000E+00	2.47078			
2.714100E+00	2.45348			
2.717600E+00	2.39107			
2.728400E+00	2.26094			
2.736000E+00	2.11459			
2.738000E+00	2.11401			
2.738520E+00	2.11561			
2.740800E+00	2.1483			
2.745200E+00	2.24074			
2.748000E+00	2.29959			
2.751200E+00	2.31741			
2.760000E+00	2.25007			
2.764000E+00	2.21943			
2.764600E+00	2.22225			
2.769200E+00	2.26279			
2.774400E+00	2.38317			
2.780000E+00	2.55829			
2.782400E+00	2.57308			
2.788800E+00	2.47691			
2.789000E+00	2.47284			
2.792000E+00	2.42735			
2.796000E+00	2.41741			
2.800000E+00	2.48061			
2.808600E+00	2.6165			
2.808960E+00	2.62495			
2.820000E+00	2.74756			
2.820400E+00	2.75201			
2.826200E+00	2.8459			
2.827500E+00	2.87874			
2.832000E+00	2.99536			
2.842700E+00	3.39841			
2.843850E+00	3.43985			
2.845000E+00	3.4827			
2.850600E+00	3.62619			
2.854100E+00	3.66977			
2.856020E+00	3.69078			
2.863000E+00	3.66023			
2.863900E+00	3.63793			
2.867000E+00	3.55418			
2.871000E+00	3.34998			
2.876800E+00	2.95307			
2.879000E+00	2.80248			
2.881600E+00	2.66316			
2.884200E+00	2.55517			
2.888900E+00	2.42349			
2.889400E+00	2.41044			
2.903400E+00	2.19236			
2.910200E+00	2.04681			
2.911600E+00	2.03833			
2.913070E+00	2.05403			
2.916300E+00	2.14528			
2.918200E+00	2.19884			
2.927000E+00	2.31453			
2.935400E+00	2.56514			
2.938200E+00	2.61427			
2.939000E+00	2.61284			
2.940000E+00	2.60906			
2.941000E+00	2.60527			
2.943060E+00	2.5504			
2.947000E+00	2.36447			
2.951000E+00	2.13726			
2.956000E+00	1.90005			
2.961000E+00	1.72948			
2.965500E+00	1.62861			
2.966000E+00	1.61817			
2.971000E+00	1.55854			
2.976000E+00	1.54321			
2.980400E+00	1.56119			
2.984800E+00	1.60758			
2.985300E+00	1.61581			
2.989200E+00	1.68234			
2.993600E+00	1.78564			
3.000000E+00	1.98757			
3.001000E+00	2.01909			
3.004000E+00	2.22025			
3.007000E+00	2.38347			
3.010000E+00	2.50778			
3.013000E+00	2.59267			
3.018000E+00	2.64743			
3.022000E+00	2.61811			
3.026000E+00	2.53374			
3.032600E+00	2.34299			
3.034800E+00	2.30384			
3.037000E+00	2.2956			
3.042000E+00	2.37931			
3.042100E+00	2.38028			
3.045000E+00	2.42934			
3.047550E+00	2.42116			
3.052650E+00	2.35303			
3.055200E+00	2.31811			
3.060000E+00	2.32339			
3.063850E+00	2.3758			
3.063900E+00	2.37753			
3.065600E+00	2.39906			
3.067000E+00	2.40252			
3.070000E+00	2.36235			
3.079000E+00	2.08224			
3.082000E+00	2.02962			
3.084500E+00	2.03489			
3.085000E+00	2.03744			
3.088000E+00	2.10044			
3.091000E+00	2.20545			
3.094000E+00	2.33994			
3.103000E+00	2.78937			
3.105100E+00	2.87041			
3.105550E+00	2.89027			
3.106000E+00	2.90762			
3.109000E+00	2.98547			
3.112000E+00	3.00829			
3.115000E+00	2.96943			
3.116500E+00	2.93228			
3.124000E+00	2.74156			
3.127060E+00	2.73173			
3.131000E+00	2.82819			
3.134900E+00	3.00811			
3.136950E+00	3.09957			
3.139000E+00	3.19287			
3.143000E+00	3.3217			
3.147000E+00	3.32281			
3.150000E+00	3.20973			
3.153000E+00	3.02403			
3.159000E+00	2.58779			
3.162000E+00	2.41368			
3.164400E+00	2.32493			
3.166800E+00	2.27625			
3.169200E+00	2.25528			
3.170600E+00	2.25225			
3.176000E+00	2.24227			
3.177200E+00	2.24006			
3.178200E+00	2.23098			
3.180000E+00	2.21466			
3.183600E+00	2.18201			
3.183830E+00	2.17861			
3.186800E+00	2.1344			
3.197200E+00	1.93275			
3.200000E+00	1.9093			
3.200400E+00	1.90595			
3.201000E+00	1.90959			
3.203600E+00	1.92919			
3.217920E+00	2.24723			
3.219400E+00	2.29607			
3.222000E+00	2.38501			
3.228750E+00	2.65023			
3.230000E+00	2.69949			
3.231300E+00	2.73833			
3.234000E+00	2.81712			
3.236200E+00	2.84603			
3.238000E+00	2.86722			
3.240000E+00	2.84424			
3.242800E+00	2.81205			
3.247600E+00	2.66236			
3.257200E+00	2.26206			
3.260000E+00	2.17011			
3.262000E+00	2.10442			
3.263300E+00	2.08221			
3.266800E+00	2.02651			
3.270000E+00	2.01727			
3.273400E+00	2.03823			
3.280000E+00	2.1259			
3.283600E+00	2.17371			
3.287000E+00	2.20169			
3.290400E+00	2.19855			
3.292000E+00	2.19633			
3.296690E+00	2.15278			
3.300000E+00	2.11046			
3.307000E+00	2.02104			
3.312000E+00	1.98332			
3.318430E+00	1.99277			
3.320000E+00	2.00476			
3.326700E+00	2.05597			
3.340000E+00	2.15843			
3.345600E+00	2.20156			
3.351200E+00	2.27606			
3.355000E+00	2.32661			
3.360000E+00	2.40079			
3.361100E+00	2.41712			
3.365000E+00	2.47449			
3.370000E+00	2.5143			
3.375000E+00	2.50858			
3.380000E+00	2.44259			
3.381380E+00	2.42445			
3.392000E+00	2.24139			
3.399200E+00	2.19416			
3.404540E+00	2.21085			
3.405300E+00	2.21829			
3.412600E+00	2.29774			
3.420000E+00	2.43405			
3.420400E+00	2.44142			
3.427000E+00	2.60256			
3.428700E+00	2.6228			
3.429800E+00	2.63437			
3.435400E+00	2.60691			
3.446200E+00	2.42604			
3.446900E+00	2.41181			
3.448600E+00	2.38574			
3.454600E+00	2.28523			
3.462600E+00	2.21812			
3.470660E+00	2.21376			
3.472280E+00	2.21584			
3.475500E+00	2.23373			
3.491400E+00	2.3228			
3.495000E+00	2.35624			
3.505200E+00	2.45141			
3.511800E+00	2.43839			
3.518400E+00	2.35804			
3.526000E+00	2.26615			
3.534000E+00	2.22003			
3.535410E+00	2.21214			
3.549000E+00	2.19187			
3.562200E+00	2.11611			
3.574190E+00	1.99674			
3.574300E+00	1.99516			
3.589600E+00	1.84297			
3.597200E+00	1.73743			
3.603800E+00	1.60285			
3.615000E+00	1.33518			
3.619000E+00	1.26588			
3.623000E+00	1.22546			
3.623600E+00	1.22471			
3.626940E+00	1.22063			
3.637000E+00	1.28074			
3.638000E+00	1.28317			
3.643000E+00	1.29529			
3.664310E+00	1.27824			
3.674000E+00	1.25811			
3.674400E+00	1.25887			
3.680000E+00	1.27292			
3.682980E+00	1.29987			
3.686800E+00	1.35852			
3.698200E+00	1.59264			
3.700000E+00	1.62015			
3.702000E+00	1.65072			
3.708000E+00	1.69019			
3.719900E+00	1.67199			
3.720000E+00	1.6721			
3.726000E+00	1.67852			
3.732000E+00	1.73638			
3.738000E+00	1.86621			
3.749000E+00	2.1982			
3.750000E+00	2.22838			
3.752400E+00	2.29189			
3.754200E+00	2.33925			
3.755200E+00	2.36557			
3.756000E+00	2.38663			
3.760000E+00	2.4492			
3.762000E+00	2.48049			
3.768250E+00	2.48489			
3.774500E+00	2.4336			
3.793840E+00	2.2622			
3.796600E+00	2.24263			
3.800000E+00	2.22346			
3.802300E+00	2.21049			
3.808000E+00	2.19212			
3.813500E+00	2.19089			
3.823190E+00	2.18678			
3.825120E+00	2.18405			
3.829000E+00	2.15782			
3.835200E+00	2.07527			
3.840000E+00	1.98565			
3.853800E+00	1.72802			
3.860000E+00	1.65724			
3.864640E+00	1.63941			
3.865300E+00	1.63996			
3.879400E+00	1.65696			
3.880000E+00	1.66059			
3.884800E+00	1.68963			
3.887800E+00	1.70848			
3.892000E+00	1.76112			
3.894000E+00	1.7974			
3.896400E+00	1.84094			
3.900000E+00	1.92586			
3.905400E+00	2.05325			
3.918200E+00	2.35543			
3.923800E+00	2.44495			
3.924000E+00	2.44816			
3.926600E+00	2.48983			
3.935000E+00	2.56169			
3.939400E+00	2.56748			
3.940000E+00	2.56793			
3.943640E+00	2.57062			
3.960000E+00	2.49916			
3.962000E+00	2.49041			
3.966610E+00	2.38889			
3.968700E+00	2.32846			
3.973000E+00	2.20621			
3.976400E+00	2.13565			
3.979800E+00	2.09406			
3.983200E+00	2.08098			
3.986600E+00	2.0967			
3.990000E+00	2.14071			
3.998600E+00	2.17261			
4.000000E+00	2.17781			
4.001000E+00	2.18146			
4.005400E+00	2.12128			
4.009800E+00	2.10381			
4.015220E+00	2.14205			
4.016000E+00	2.15401			
4.022200E+00	2.265			
4.022700E+00	2.2767			
4.030700E+00	2.46384			
4.035800E+00	2.58314			
4.040000E+00	2.64773			
4.042600E+00	2.68772			
4.046000E+00	2.70467			
4.050400E+00	2.6826			
4.054800E+00	2.61905			
4.061300E+00	2.46921			
4.063600E+00	2.41584			
4.073800E+00	2.1559			
4.079600E+00	2.03018			
4.080000E+00	2.02329			
4.085400E+00	1.9302			
4.091200E+00	1.86282			
4.096400E+00	1.83767			
4.097000E+00	1.83534			
4.099250E+00	1.84287			
4.100000E+00	1.84569			
4.103970E+00	1.8607			
4.110600E+00	1.93364			
4.121200E+00	2.09506			
4.125940E+00	2.10562			
4.130400E+00	2.0377			
4.136400E+00	1.90001			
4.137000E+00	1.88633			
4.140000E+00	1.84525			
4.143000E+00	1.80419			
4.143700E+00	1.80078			
4.149000E+00	1.775			
4.161000E+00	1.74709			
4.167000E+00	1.68477			
4.174200E+00	1.56095			
4.176600E+00	1.54034			
4.178960E+00	1.54616			
4.180000E+00	1.56398			
4.185000E+00	1.64984			
4.186100E+00	1.66385			
4.189800E+00	1.71198			
4.191000E+00	1.7425			
4.193200E+00	1.83223			
4.195400E+00	1.95844			
4.205600E+00	2.68977			
4.209200E+00	2.90622			
4.212800E+00	3.08002			
4.216400E+00	3.20401			
4.220000E+00	3.27033			
4.221000E+00	3.26893			
4.225000E+00	3.26328			
4.230000E+00	3.1719			
4.240000E+00	2.89904			
4.245000E+00	2.79944			
4.248600E+00	2.76968			
4.259300E+00	2.79956			
4.260000E+00	2.8013			
4.263010E+00	2.8088			
4.269200E+00	2.77925			
4.275400E+00	2.70582			
4.283600E+00	2.58522			
4.293920E+00	2.43421			
4.300000E+00	2.39556			
4.309000E+00	2.33843			
4.322400E+00	2.25508			
4.325000E+00	2.25425			
4.330000E+00	2.28894			
4.340000E+00	2.42725			
4.341250E+00	2.44454			
4.342100E+00	2.45884			
4.345000E+00	2.49615			
4.350000E+00	2.52565			
4.353920E+00	2.51252			
4.360000E+00	2.43308			
4.361400E+00	2.4148			
4.380400E+00	2.01426			
4.384100E+00	1.96779			
4.384200E+00	1.96584			
4.388000E+00	1.94627			
4.391800E+00	1.96184			
4.395600E+00	2.00694			
4.400000E+00	2.09103			
4.403200E+00	2.15217			
4.412200E+00	2.33971			
4.417100E+00	2.39354			
4.417400E+00	2.39683			
4.421000E+00	2.37895			
4.422280E+00	2.37262			
4.423900E+00	2.35491			
4.430400E+00	2.27532			
4.434160E+00	2.29832			
4.439000E+00	2.3956			
4.444200E+00	2.44323			
4.461400E+00	2.39709			
4.462100E+00	2.39945			
4.464850E+00	2.41984			
4.467600E+00	2.43841			
4.475400E+00	2.53481			
4.480000E+00	2.54356			
4.480800E+00	2.54509			
4.491920E+00	2.44282			
4.498600E+00	2.43709			
4.500000E+00	2.4472			
4.503000E+00	2.46885			
4.505200E+00	2.48605			
4.518400E+00	2.64655			
4.520000E+00	2.6594			
4.526000E+00	2.70765			
4.527760E+00	2.71854			
4.535400E+00	2.69298			
4.537900E+00	2.65932			
4.540000E+00	2.6129			
4.543400E+00	2.5377			
4.554200E+00	2.21004			
4.559600E+00	2.06395			
4.560000E+00	2.05709			
4.565000E+00	1.97144			
4.570700E+00	1.94692			
4.572600E+00	1.94287			
4.579070E+00	1.9312			
4.580000E+00	1.92249			
4.586400E+00	1.86258			
4.590600E+00	1.86951			
4.596290E+00	1.94426			
4.600000E+00	2.03383			
4.604600E+00	2.14484			
4.617000E+00	2.48745			
4.620000E+00	2.55055			
4.625000E+00	2.65575			
4.633000E+00	2.75966			
4.640000E+00	2.78439			
4.640870E+00	2.78748			
4.642620E+00	2.78443			
4.647000E+00	2.76676			
4.660000E+00	2.63033			
4.663600E+00	2.59257			
4.668000E+00	2.54647			
4.675000E+00	2.51161			
4.682070E+00	2.54307			
4.698800E+00	2.79034			
4.700000E+00	2.79292			
4.703000E+00	2.7994			
4.707400E+00	2.75517			
4.720000E+00	2.52716			
4.720600E+00	2.5163			
4.723200E+00	2.50335			
4.724100E+00	2.49686			
4.725000E+00	2.49269			
4.732200E+00	2.59131			
4.739400E+00	2.80332			
4.740000E+00	2.82345			
4.746600E+00	3.04493			
4.753800E+00	3.23243			
4.761000E+00	3.28253			
4.766600E+00	3.25443			
4.769400E+00	3.3244			
4.773600E+00	3.49637			
4.775600E+00	3.51218			
4.776400E+00	3.5185			
4.777400E+00	3.49352			
4.778500E+00	3.45705			
4.779200E+00	3.43576			
4.780000E+00	3.40451			
4.782800E+00	3.2951			
4.786400E+00	3.15472			
4.790800E+00	3.04961			
4.800000E+00	2.91634			
4.808400E+00	2.79461			
4.809900E+00	2.7645			
4.820000E+00	2.56301			
4.826000E+00	2.44327			
4.832000E+00	2.36256			
4.838000E+00	2.34711			
4.840000E+00	2.36497			
4.840750E+00	2.37167			
4.842400E+00	2.40137			
4.845400E+00	2.4615			
4.854200E+00	2.70796			
4.858600E+00	2.80967			
4.860000E+00	2.82514			
4.863000E+00	2.85827			
4.864000E+00	2.8519			
4.864120E+00	2.84981			
4.869000E+00	2.80927			
4.875000E+00	2.66667			
4.880000E+00	2.52783			
4.887000E+00	2.33347			
4.893000E+00	2.25956			
4.896060E+00	2.26963			
4.896500E+00	2.27643			
4.900000E+00	2.33122			
4.902000E+00	2.36254			
4.914000E+00	2.63655			
4.917000E+00	2.67462			
4.920000E+00	2.68197			
4.923000E+00	2.64948			
4.926000E+00	2.57274			
4.935000E+00	2.25531			
4.938000E+00	2.18959			
4.940000E+00	2.17798			
4.941000E+00	2.17219			
4.941200E+00	2.1715			
4.954000E+00	2.2442			
4.954140E+00	2.24613			
4.955000E+00	2.25084			
4.960000E+00	2.2372			
4.963000E+00	2.22903			
4.963920E+00	2.22651			
4.970000E+00	2.17723			
4.975540E+00	2.13228			
4.975680E+00	2.1327			
4.978530E+00	2.14307			
4.980000E+00	2.16255			
4.981700E+00	2.18504			
4.993600E+00	2.34257			
5.000000E+00	2.40469			
5.003500E+00	2.43856			
5.006600E+00	2.46857			
5.008000E+00	2.48212			
5.020000E+00	2.3321			
5.029700E+00	2.21083			
5.029800E+00	2.20981			
5.032800E+00	2.17186			
5.040000E+00	2.07158			
5.045400E+00	1.99638			
5.047000E+00	1.98648			
5.049000E+00	1.99816			
5.054800E+00	2.03202			
5.062600E+00	2.18444			
5.070400E+00	2.37167			
5.078200E+00	2.52199			
5.080000E+00	2.53156			
5.086000E+00	2.56348			
5.089200E+00	2.53549			
5.098800E+00	2.39745			
5.100000E+00	2.39239			
5.103600E+00	2.37724			
5.110600E+00	2.42376			
5.111100E+00	2.4254			
5.126000E+00	2.52729			
5.140000E+00	2.73888			
5.145200E+00	2.81751			
5.150000E+00	2.8407			
5.150100E+00	2.84046			
5.153700E+00	2.8148			
5.154000E+00	2.8127			
5.156600E+00	2.79441			
5.160000E+00	2.73424			
5.176400E+00	2.44412			
5.183000E+00	2.39047			
5.188750E+00	2.41413			
5.194500E+00	2.4521			
5.200000E+00	2.49153			
5.208200E+00	2.45478			
5.216800E+00	2.3356			
5.217200E+00	2.32955			
5.220000E+00	2.28409			
5.232800E+00	2.07637			
5.240000E+00	2.02453			
5.241000E+00	2.0173			
5.250000E+00	2.03076			
5.253940E+00	2.03648			
5.260000E+00	2.01528			
5.264000E+00	2.0012			
5.272210E+00	1.95254			
5.272500E+00	1.94973			
5.274100E+00	1.94128			
5.280000E+00	1.90635			
5.284200E+00	1.88142			
5.290500E+00	1.8829			
5.291200E+00	1.88472			
5.300000E+00	1.95853			
5.306600E+00	2.01402			
5.311800E+00	2.04019			
5.317050E+00	2.02713			
5.320000E+00	1.98746			
5.323800E+00	1.93632			
5.337400E+00	1.63543			
5.340000E+00	1.58833			
5.344200E+00	1.51244			
5.351000E+00	1.46544			
5.352100E+00	1.47007			
5.353940E+00	1.47775			
5.355700E+00	1.49132			
5.360000E+00	1.52693			
5.369800E+00	1.60853			
5.375400E+00	1.63246			
5.382200E+00	1.66158			
5.392830E+00	1.67544			
5.399200E+00	1.66873			
5.400000E+00	1.66788			
5.400100E+00	1.66778			
5.413400E+00	1.65341			
5.420900E+00	1.61296			
5.423800E+00	1.59732			
5.429000E+00	1.54588			
5.439800E+00	1.40876			
5.440000E+00	1.40707			
5.443400E+00	1.37842			
5.447020E+00	1.36837			
5.449500E+00	1.38203			
5.452200E+00	1.39821			
5.457400E+00	1.47095			
5.460000E+00	1.52509			
5.473000E+00	1.79589			
5.480200E+00	1.92513			
5.487400E+00	2.02253			
5.494800E+00	2.0905			
5.495000E+00	2.09242			
5.500000E+00	2.1174			
5.501800E+00	2.12667			
5.510000E+00	2.12592			
5.514170E+00	2.12562			
5.520000E+00	2.09837			
5.540000E+00	2.00328			
5.541400E+00	1.99632			
5.548820E+00	2.01991			
5.560000E+00	2.11321			
5.563000E+00	2.13857			
5.580000E+00	2.10729			
5.581000E+00	2.1055			
5.581500E+00	2.10731			
5.589000E+00	2.13437			
5.590000E+00	2.12893			
5.592440E+00	2.11586			
5.593810E+00	2.10166			
5.600000E+00	2.02742			
5.605400E+00	2.02247			
5.608100E+00	2.04602			
5.610000E+00	2.06267			
5.610800E+00	2.0697			
5.620000E+00	2.17957			
5.621600E+00	2.19855			
5.627000E+00	2.21861			
5.630550E+00	2.19798			
5.634100E+00	2.15356			
5.640000E+00	2.07732			
5.642200E+00	2.04884			
5.646000E+00	2.01632			
5.646800E+00	2.01512			
5.649800E+00	2.01058			
5.657400E+00	2.06718			
5.660000E+00	2.10551			
5.665000E+00	2.17907			
5.670000E+00	2.26305			
5.676800E+00	2.37745			
5.679900E+00	2.42961			
5.687200E+00	2.55243			
5.690000E+00	2.59011			
5.694600E+00	2.6527			
5.700000E+00	2.69716			
5.705900E+00	2.74582			
5.717200E+00	2.74568			
5.720000E+00	2.72298			
5.721200E+00	2.71329			
5.726800E+00	2.66638			
5.740000E+00	2.49784			
5.744200E+00	2.44494			
5.750000E+00	2.40102			
5.753800E+00	2.37217			
5.760000E+00	2.36375			
5.761400E+00	2.36246			
5.770120E+00	2.39045			
5.770600E+00	2.39354			
5.773030E+00	2.39983			
5.780000E+00	2.42231			
5.792400E+00	2.46166			
5.800000E+00	2.46923			
5.800200E+00	2.46917			
5.808000E+00	2.45185			
5.817400E+00	2.40856			
5.820000E+00	2.39667			
5.827000E+00	2.36432			
5.834800E+00	2.39374			
5.840000E+00	2.41322			
5.851000E+00	2.47307			
5.860000E+00	2.46173			
5.860790E+00	2.46096			
5.868400E+00	2.39484			
5.880000E+00	2.25019			
5.900000E+00	1.99519			
5.914000E+00	1.87445			
5.920000E+00	1.8493			
5.926000E+00	1.82514			
5.938000E+00	1.82221			
5.940000E+00	1.8272			
5.950000E+00	1.85324			
5.960000E+00	1.89529			
5.980000E+00	1.98107			
5.997000E+00	2.0557			
6.000000E+00	2.04736			
6.007000E+00	2.02775			
6.009900E+00	2.07306			
6.015200E+00	2.15773			
6.020000E+00	2.21402			
6.023400E+00	2.25377			
6.031600E+00	2.31521			
6.039800E+00	2.34123			
6.040000E+00	2.34102			
6.048000E+00	2.33378			
6.056700E+00	2.28262			
6.060000E+00	2.26231			
6.060400E+00	2.25994			
6.079000E+00	2.05786			
6.086600E+00	1.9623			
6.100000E+00	1.79442			
6.104200E+00	1.73911			
6.121000E+00	1.56716			
6.127600E+00	1.52552			
6.132000E+00	1.52231			
6.138400E+00	1.56744			
6.140000E+00	1.58983			
6.157600E+00	1.84016			
6.160000E+00	1.85418			
6.166000E+00	1.89197			
6.174000E+00	1.87924			
6.180000E+00	1.9028			
6.189000E+00	1.93661			
6.200000E+00	2.06187			
6.204000E+00	2.10679			
6.213400E+00	2.25006			
6.222100E+00	2.38265			
6.234000E+00	2.56393			
6.236100E+00	2.59043			
6.240000E+00	2.63991			
6.249000E+00	2.73965			
6.250000E+00	2.74273			
6.260000E+00	2.7938			
6.262410E+00	2.80686			
6.267300E+00	2.79684			
6.270000E+00	2.79131			
6.271000E+00	2.78873			
6.272500E+00	2.77558			
6.278700E+00	2.71751			
6.281800E+00	2.68874			
6.282000E+00	2.68688			
6.290000E+00	2.56853			
6.293000E+00	2.52363			
6.300000E+00	2.40808			
6.306300E+00	2.30125			
6.310000E+00	2.23881			
6.315000E+00	2.15369			
6.320000E+00	2.0912			
6.326000E+00	2.0172			
6.334800E+00	1.95992			
6.340000E+00	1.95267			
6.343600E+00	1.95016			
6.353300E+00	1.98912			
6.354600E+00	1.99531			
6.360000E+00	2.02456			
6.365600E+00	2.06101			
6.369800E+00	2.07245			
6.370000E+00	2.07183			
6.374000E+00	2.06771			
6.376800E+00	2.06389			
6.380000E+00	2.05043			
6.388200E+00	2.00527			
6.397200E+00	1.95558			
6.400000E+00	1.95771			
6.404000E+00	1.94032			
6.420000E+00	1.98835			
6.427110E+00	2.01365			
6.438000E+00	1.98872			
6.440000E+00	1.96958			
6.447070E+00	1.91621			
6.460000E+00	1.76766			
6.464400E+00	1.71875			
6.465600E+00	1.70564			
6.474800E+00	1.61518			
6.480000E+00	1.5892			
6.484000E+00	1.56424			
6.493200E+00	1.56551			
6.497300E+00	1.57748			
6.500000E+00	1.58582			
6.507000E+00	1.60391			
6.518600E+00	1.60417			
6.524500E+00	1.58634			
6.530200E+00	1.5684			
6.540000E+00	1.51125			
6.553400E+00	1.43155			
6.560000E+00	1.38638			
6.572900E+00	1.30448			
6.574200E+00	1.29622			
6.580000E+00	1.27656			
6.583400E+00	1.26644			
6.588000E+00	1.26819			
6.592600E+00	1.29037			
6.597400E+00	1.3144			
6.600000E+00	1.33954			
6.606800E+00	1.40936			
6.616200E+00	1.54024			
6.620000E+00	1.60367			
6.640000E+00	1.9305			
6.649400E+00	2.09543			
6.659000E+00	2.20677			
6.670000E+00	2.26403			
6.672300E+00	2.27594			
6.680000E+00	2.31582			
6.683000E+00	2.32505			
6.690000E+00	2.36705			
6.695000E+00	2.39666			
6.699780E+00	2.38933			
6.708900E+00	2.31503			
6.710000E+00	2.30424			
6.710700E+00	2.29646			
6.720000E+00	2.19294			
6.723800E+00	2.15376			
6.733400E+00	2.0881			
6.740000E+00	2.07043			
6.742710E+00	2.06643			
6.750000E+00	2.07255			
6.760000E+00	2.08095			
6.763200E+00	2.08556			
6.772450E+00	2.0577			
6.773000E+00	2.05492			
6.774510E+00	2.05146			
6.780000E+00	2.03479			
6.790400E+00	2.01908			
6.800000E+00	2.00521			
6.820000E+00	1.86668			
6.829000E+00	1.80722			
6.836720E+00	1.80725			
6.840000E+00	1.81952			
6.857800E+00	1.90904			
6.860000E+00	1.9201			
6.867000E+00	1.95473			
6.874400E+00	1.96185			
6.889200E+00	1.91855			
6.904000E+00	1.81689			
6.919600E+00	1.69226			
6.920000E+00	1.68989			
6.924800E+00	1.6685			
6.930000E+00	1.66298			
6.930300E+00	1.66435			
6.937400E+00	1.69732			
6.937500E+00	1.698			
6.940000E+00	1.70986			
6.950000E+00	1.78772			
6.955000E+00	1.8288			
6.960000E+00	1.85617			
6.965200E+00	1.87381			
6.975720E+00	1.88643			
6.980000E+00	1.88444			
6.995800E+00	1.87962			
7.000000E+00	1.88103			
7.001500E+00	1.88354			
7.006000E+00	1.89211			
7.020000E+00	1.96877			
7.037200E+00	2.03077			
7.040000E+00	2.03585			
7.045000E+00	2.04992			
7.049600E+00	2.04937			
7.052350E+00	2.04814			
7.055100E+00	2.04089			
7.060000E+00	2.02562			
7.060600E+00	2.0235			
7.068400E+00	1.97729			
7.076200E+00	1.90964			
7.080000E+00	1.86949			
7.084000E+00	1.82097			
7.091900E+00	1.71702			
7.100000E+00	1.61045			
7.105400E+00	1.53647			
7.109800E+00	1.49263			
7.111000E+00	1.48114			
7.115700E+00	1.44861			
7.116200E+00	1.44515			
7.120000E+00	1.42959			
7.121400E+00	1.42592			
7.125000E+00	1.42521			
7.126600E+00	1.42507			
7.131800E+00	1.44404			
7.134300E+00	1.46574			
7.135000E+00	1.47186			
7.139600E+00	1.51253			
7.140000E+00	1.5182			
7.150000E+00	1.67009			
7.160000E+00	1.83993			
7.161900E+00	1.87448			
7.164000E+00	1.91269			
7.172000E+00	2.00238			
7.180000E+00	2.05096			
7.188000E+00	2.0711			
7.200000E+00	2.09427			
7.214000E+00	2.09611			
7.217200E+00	2.09646			
7.220000E+00	2.09672			
7.235610E+00	2.10958			
7.240000E+00	2.10777			
7.260000E+00	2.10176			
7.263400E+00	2.10106			
7.266100E+00	2.10688			
7.280000E+00	2.13843			
7.285000E+00	2.14398			
7.300000E+00	2.15009			
7.306600E+00	2.14541			
7.317600E+00	2.19692			
7.320000E+00	2.21271			
7.328800E+00	2.27062			
7.334400E+00	2.28613			
7.340000E+00	2.25905			
7.342980E+00	2.24703			
7.354000E+00	2.13628			
7.360000E+00	2.11461			
7.370800E+00	2.11383			
7.380000E+00	2.09529			
7.400000E+00	2.06688			
7.418400E+00	2.02841			
7.420000E+00	2.03071			
7.440000E+00	2.09445			
7.443600E+00	2.10273			
7.454800E+00	2.0918			
7.460000E+00	2.09131			
7.480000E+00	2.01819			
7.500000E+00	1.94062			
7.504500E+00	1.93447			
7.511800E+00	1.92672			
7.514600E+00	1.92439			
7.520000E+00	1.92004			
7.540000E+00	1.90922			
7.550000E+00	1.90635			
7.575200E+00	1.9129			
7.578800E+00	1.91724			
7.580000E+00	1.91866			
7.600000E+00	1.94361			
7.616250E+00	1.9525			
7.620000E+00	1.95837			
7.640000E+00	1.98705			
7.645000E+00	2.00087			
7.649000E+00	2.01222			
7.660000E+00	2.03214			
7.680000E+00	2.09235			
7.681300E+00	2.09398			
7.682000E+00	2.09491			
7.683000E+00	2.09804			
7.700000E+00	2.15122			
7.720000E+00	2.14998			
7.740000E+00	2.11224			
7.760000E+00	2.11666			
7.764000E+00	2.12337			
7.780000E+00	2.08959			
7.783650E+00	2.08244			
7.800000E+00	2.0406			
7.803300E+00	2.02978			
7.820000E+00	1.97453			
7.821000E+00	1.97086			
7.833200E+00	1.97579			
7.840000E+00	2.00244			
7.845400E+00	2.02393			
7.860000E+00	2.0953			
7.876400E+00	2.18869			
7.900000E+00	2.24193			
7.901200E+00	2.24442			
7.907400E+00	2.24202			
7.907500E+00	2.24178			
7.920000E+00	2.23672			
7.926000E+00	2.23287			
7.940000E+00	2.20363			
7.960000E+00	2.15179			
7.967600E+00	2.12838			
7.980000E+00	2.09013			
8.000000E+00	2.01971			
8.004000E+00	2.00592			
8.030000E+00	1.89557			
8.054400E+00	1.79043			
8.060000E+00	1.76064			
8.071800E+00	1.70706			
8.078100E+00	1.67853			
8.080000E+00	1.67001			
8.083000E+00	1.65727			
8.095840E+00	1.64883			
8.120000E+00	1.68617			
8.137800E+00	1.72001			
8.140000E+00	1.72209			
8.160000E+00	1.7456			
8.176100E+00	1.75401			
8.183400E+00	1.75791			
8.206200E+00	1.79171			
8.220000E+00	1.83466			
8.240000E+00	1.89038			
8.248400E+00	1.91139			
8.260000E+00	1.89304			
8.280000E+00	1.86143			
8.311000E+00	1.83506			
8.320000E+00	1.8361			
8.331400E+00	1.84943			
8.345000E+00	1.89808			
8.360000E+00	1.97314			
8.365400E+00	1.9983			
8.377330E+00	2.00248			
8.389250E+00	1.99897			
8.400000E+00	1.99474			
8.420000E+00	1.97757			
8.429000E+00	1.96116			
8.460000E+00	1.97624			
8.477800E+00	1.98899			
8.480000E+00	1.98646			
8.520000E+00	1.9801			
8.540000E+00	1.97001			
8.546800E+00	1.96157			
8.560000E+00	1.96091			
8.580000E+00	1.95921			
8.581300E+00	1.95952			
8.584900E+00	1.96148			
8.595100E+00	1.96288			
8.600000E+00	1.96395			
8.602000E+00	1.96779			
8.620000E+00	1.93672			
8.636730E+00	1.92717			
8.640000E+00	1.93369			
8.660000E+00	1.93306			
8.680000E+00	1.90663			
8.680200E+00	1.9064			
8.694600E+00	1.8767			
8.700000E+00	1.85031			
8.716000E+00	1.7766			
8.737000E+00	1.64923			
8.740000E+00	1.64085			
8.745300E+00	1.62727			
8.751200E+00	1.61249			
8.760000E+00	1.61829			
8.765520E+00	1.62879			
8.770000E+00	1.64321			
8.778100E+00	1.65437			
8.780000E+00	1.657			
8.800000E+00	1.70455			
8.805300E+00	1.72171			
8.820000E+00	1.77037			
8.853000E+00	1.866			
8.897000E+00	2.01323			
8.960600E+00	2.06235			
8.980000E+00	2.07403			
8.981800E+00	2.07564			
9.000000E+00	2.09126			
9.020000E+00	2.10282			
9.020180E+00	2.10293			
9.035200E+00	2.09461			
9.065600E+00	2.01427			
9.096000E+00	1.91703			
9.130100E+00	1.83557			
9.135000E+00	1.82389			
9.173000E+00	1.66906			
9.188600E+00	1.63058			
9.219800E+00	1.61396			
9.268890E+00	1.66193			
9.271220E+00	1.66488			
9.294600E+00	1.75623			
9.318200E+00	1.86439			
9.338000E+00	1.91068			
9.338600E+00	1.91052			
9.370000E+00	1.88827			
9.402000E+00	2.02319			
9.413810E+00	2.02163			
9.438000E+00	1.93945			
9.454000E+00	1.92545			
9.510800E+00	1.92233			
9.551600E+00	1.86243			
9.575100E+00	1.7934			
9.592450E+00	1.74137			
9.609800E+00	1.68997			
9.622400E+00	1.66422			
9.643200E+00	1.66035			
9.709610E+00	1.78325			
9.780000E+00	1.82717			
9.795000E+00	1.83653			
9.800000E+00	1.83781			
9.812600E+00	1.84073			
9.820000E+00	1.84279			
9.846000E+00	1.85003			
9.968400E+00	1.84914			
1.000000E+01	1.86388			
1.006400E+01	1.89107			
1.010530E+01	1.8748			
1.011900E+01	1.86437			
1.017400E+01	1.81758			
1.020000E+01	1.77818			
1.023060E+01	1.8249			
1.027000E+01	1.85006			
1.031600E+01	1.9166			
1.034040E+01	1.90509			
1.034300E+01	1.89876			
1.042000E+01	1.7133			
1.046000E+01	1.66391			
1.050000E+01	1.65733			
1.050800E+01	1.65602			
1.052000E+01	1.66577			
1.054000E+01	1.68213			
1.058000E+01	1.71467			
1.060000E+01	1.73096			
1.062000E+01	1.72128			
1.067000E+01	1.6971			
1.069860E+01	1.71533			
1.079200E+01	1.83993			
1.080000E+01	1.84486			
1.084400E+01	1.87204			
1.085000E+01	1.86965			
1.088000E+01	1.85764			
1.090000E+01	1.84962			
1.090740E+01	1.84667			
1.091220E+01	1.84338			
1.094000E+01	1.81574			
1.095300E+01	1.80277			
1.096000E+01	1.79596			
1.098000E+01	1.7765			
1.100000E+01	1.757			
1.116000E+01	1.65691			
1.119970E+01	1.66717			
1.120000E+01	1.66759			
1.125600E+01	1.7626			
1.130000E+01	1.80348			
1.136000E+01	1.88804			
1.138000E+01	1.89461			
1.139200E+01	1.89861			
1.140000E+01	1.88987			
1.144000E+01	1.84599			
1.146000E+01	1.82415			
1.148000E+01	1.84376			
1.148400E+01	1.84766			
1.152000E+01	1.91771			
1.153200E+01	1.94106			
1.155510E+01	1.93033			
1.155970E+01	1.92658			
1.156000E+01	1.92624			
1.160600E+01	1.86301			
1.172500E+01	1.86146			
1.182500E+01	1.86013			
1.190000E+01	1.85938			
1.197500E+01	1.85833			
1.200000E+01	1.85801			
1.200100E+01	1.858			
1.210000E+01	1.85674			
1.235000E+01	1.85298			
1.244500E+01	1.85154			
1.245000E+01	1.85149			
1.250000E+01	1.8508			
1.300000E+01	1.84263			
1.305000E+01	1.8416			
1.315000E+01	1.83955			
1.345000E+01	1.83342			
1.350000E+01	1.8323			
1.385000E+01	1.81968			
1.390000E+01	1.81787			
1.395000E+01	1.81596			
1.400000E+01	1.81405			
1.450000E+01	1.7949			
1.451200E+01	1.79524			
1.475000E+01	1.80443			
1.500000E+01	1.81377			
1.550000E+01	1.82931			
1.575000E+01	1.83707			
1.600000E+01	1.84456			
1.613200E+01	1.84808			
1.625000E+01	1.8514			
1.650000E+01	1.85841			
1.700000E+01	1.8396			
1.750000E+01	1.82256			
1.775000E+01	1.84167			
1.779400E+01	1.84489			
1.800000E+01	1.86078			
1.814700E+01	1.87192			
1.850000E+01	1.8989			
1.875000E+01	1.90018			
1.900000E+01	1.90146			
1.925000E+01	1.90197			
1.926810E+01	1.90201			
1.950000E+01	1.90259			
2.000000E+01	1.90361